Mar 17 2018 at 8:19:51
Frequency: 1.00Hz.
CO2
Zero:  Value:0.91  Date:May 19 2009 at 7:53:33 AM
Span:  Value:1.00  Date:May 19 2009 at 8:00:06 AM
H2O
Zero:  Value:0.77  Date:May 19 2009 at 7:54:01 AM
Span:  Value:1.01  Date:28 Jun 2004	 at 08:29:05	
Windy, High light, cold, drizzles
	Relative Time	Temperature	Pressure	Aux Input	CO2 Absorptance	CO2 mmol/m3	CO2 mg/m3	CO2 umol/mol	H2O Absorptance	H2O mmol/m3	H2O g/m3	H2O mmol/mol	H2O(°C)	Cooler Voltage
	0.53	15.35	64.32	0.00	0.0591	10.72	471.9	399.94	0.0576	471.7	8.490	17.59	8.73	1.40
	1.55	15.35	64.32	0.00	0.0590	10.75	473.2	401.03	0.0575	474.1	8.534	17.68	8.80	1.40
	2.53	15.37	64.32	0.00	0.0592	10.75	472.9	400.84	0.0579	476.3	8.573	17.76	8.87	1.40
	3.55	15.37	64.32	0.00	0.0592	10.77	473.9	401.71	0.0588	485.3	8.736	18.10	9.15	1.40
	4.53	15.37	64.29	0.00	0.0591	10.75	472.9	401.01	0.0587	488.8	8.798	18.24	9.26	1.40
	5.55	15.37	64.32	0.00	0.0591	10.73	472.1	400.17	0.0587	487.4	8.774	18.18	9.22	1.40
	6.61	15.37	64.32	0.00	0.0588	10.68	469.8	398.24	0.0582	482.6	8.687	18.00	9.07	1.40
	7.55	15.39	64.32	0.00	0.0589	10.69	470.2	398.54	0.0586	486.9	8.764	18.16	9.20	1.40
	8.61	15.37	64.32	0.00	0.0590	10.72	471.6	399.73	0.0597	496.7	8.940	18.52	9.49	1.40
	9.55	15.37	64.32	0.00	0.0591	10.72	471.6	399.73	0.0601	505.3	9.095	18.84	9.75	1.40
	10.55	15.37	64.32	0.00	0.0590	10.72	471.5	399.63	0.0599	498.6	8.975	18.59	9.55	1.40
	11.53	15.37	64.35	0.00	0.0590	10.70	470.8	398.90	0.0598	501.3	9.023	18.69	9.63	1.40
	12.55	15.39	64.32	0.00	0.0591	10.70	470.7	398.95	0.0615	510.3	9.186	19.03	9.90	1.40
	13.55	15.39	64.32	0.00	0.0591	10.71	471.2	399.43	0.0616	517.2	9.310	19.29	10.10	1.40
	14.55	15.40	64.32	0.00	0.0590	10.70	470.6	398.94	0.0610	514.9	9.269	19.21	10.03	1.40
	15.53	15.39	64.32	0.00	0.0590	10.70	470.8	399.05	0.0612	513.7	9.246	19.16	10.00	1.40
	16.55	15.39	64.29	0.00	0.0588	10.66	469.2	397.87	0.0611	527.8	9.501	19.69	10.40	1.40
	17.53	15.40	64.32	0.00	0.0589	10.68	469.9	398.29	0.0608	511.7	9.210	19.08	9.94	1.40
	18.55	15.40	64.32	0.00	0.0590	10.68	470.0	398.39	0.0608	510.8	9.195	19.05	9.92	1.40
	19.53	15.39	64.29	0.00	0.0589	10.67	469.7	398.29	0.0608	511.6	9.209	19.09	9.94	1.40
	20.55	15.40	64.32	0.00	0.0588	10.67	469.4	397.87	0.0611	512.7	9.229	19.12	9.97	1.40
	21.53	15.40	64.30	0.00	0.0587	10.62	467.5	396.42	0.0626	530.1	9.542	19.78	10.47	1.40
	22.55	15.39	64.30	0.00	0.0588	10.65	468.5	397.23	0.0620	524.0	9.433	19.55	10.30	1.40
	23.55	15.40	64.32	0.00	0.0588	10.64	468.3	396.97	0.0625	526.4	9.475	19.63	10.36	1.40
	24.53	15.40	64.32	0.00	0.0589	10.65	468.8	397.37	0.0618	526.0	9.468	19.62	10.35	1.40
	25.55	15.39	64.32	0.00	0.0587	10.65	468.5	397.15	0.0622	526.4	9.476	19.63	10.36	1.40
	26.53	15.42	64.29	0.00	0.0587	10.63	467.8	396.74	0.0631	534.1	9.613	19.93	10.58	1.40
	27.55	15.42	64.32	0.00	0.0587	10.63	467.9	396.65	0.0623	527.9	9.502	19.69	10.41	1.40
	28.53	15.42	64.32	0.00	0.0587	10.64	468.1	396.82	0.0622	527.3	9.492	19.67	10.39	1.40
	29.53	15.42	64.32	0.00	0.0586	10.63	467.7	396.49	0.0623	528.4	9.511	19.71	10.42	1.40
	30.53	15.42	64.32	0.00	0.0587	10.63	467.7	396.51	0.0625	529.3	9.528	19.74	10.45	1.40
	31.53	15.44	64.32	0.00	0.0587	10.62	467.3	396.18	0.0627	532.1	9.578	19.85	10.53	1.40
	32.53	15.42	64.29	0.00	0.0586	10.62	467.2	396.22	0.0627	532.0	9.576	19.85	10.52	1.40
	33.53	15.42	64.32	0.00	0.0586	10.59	466.2	395.20	0.0632	538.9	9.700	20.10	10.72	1.41
	34.53	15.44	64.32	0.00	0.0586	10.60	466.6	395.59	0.0629	536.3	9.654	20.01	10.65	1.40
	35.53	15.44	64.32	0.00	0.0585	10.60	466.4	395.39	0.0633	540.4	9.727	20.16	10.76	1.40
	36.61	15.44	64.27	0.00	0.0585	10.59	466.2	395.51	0.0635	540.2	9.723	20.17	10.75	1.40
	37.53	15.42	64.32	0.00	0.0585	10.59	466.0	395.06	0.0633	540.8	9.734	20.17	10.77	1.40
	38.55	15.44	64.32	0.00	0.0586	10.59	466.1	395.14	0.0633	541.5	9.746	20.20	10.79	1.40
	39.53	15.45	64.32	0.00	0.0586	10.59	465.9	395.04	0.0636	544.5	9.800	20.31	10.87	1.41
	40.55	15.44	64.29	0.00	0.0585	10.58	465.6	394.92	0.0637	545.2	9.814	20.35	10.89	1.41
	41.53	15.44	64.29	0.00	0.0585	10.58	465.5	394.79	0.0636	543.8	9.789	20.29	10.85	1.40
	42.55	15.42	64.32	0.00	0.0585	10.58	465.4	394.57	0.0638	546.0	9.828	20.37	10.91	1.40
	43.53	15.45	64.32	0.00	0.0584	10.57	465.3	394.50	0.0639	547.5	9.854	20.42	10.96	1.41
	44.53	15.45	64.32	0.00	0.0584	10.56	464.7	393.96	0.0640	549.5	9.890	20.50	11.01	1.41
	45.53	15.45	64.30	0.00	0.0584	10.55	464.4	393.83	0.0643	553.4	9.962	20.65	11.12	1.41
	46.55	15.45	64.32	0.00	0.0583	10.55	464.0	393.42	0.0647	557.6	10.038	20.80	11.23	1.41
	47.53	15.47	64.32	0.00	0.0583	10.54	463.9	393.31	0.0647	557.7	10.039	20.81	11.24	1.41
	48.55	15.45	64.32	0.00	0.0583	10.54	463.8	393.23	0.0646	556.3	10.014	20.75	11.20	1.41
	49.53	15.47	64.29	0.00	0.0584	10.52	463.1	392.77	0.0657	565.4	10.176	21.10	11.44	1.41
	50.55	15.47	64.32	0.00	0.0582	10.54	463.6	393.06	0.0651	559.8	10.076	20.88	11.29	1.41
	51.61	15.47	64.32	0.00	0.0582	10.53	463.1	392.68	0.0650	562.9	10.133	21.00	11.38	1.41
	52.55	15.45	64.35	0.00	0.0583	10.51	462.7	392.10	0.0652	565.9	10.186	21.10	11.45	1.41
	53.55	15.47	64.32	0.00	0.0582	10.52	462.9	392.51	0.0653	565.1	10.171	21.08	11.43	1.41
	54.55	15.47	64.30	0.00	0.0582	10.52	462.8	392.50	0.0654	565.7	10.183	21.11	11.45	1.41
	55.56	15.47	64.29	0.00	0.0582	10.50	461.9	391.77	0.0659	570.6	10.270	21.29	11.58	1.41
	56.55	15.47	64.32	0.00	0.0581	10.48	461.3	391.15	0.0663	575.0	10.349	21.45	11.70	1.41
	57.55	15.48	64.32	0.00	0.0581	10.50	462.1	391.79	0.0659	571.7	10.291	21.33	11.61	1.41
	58.55	15.48	64.32	0.00	0.0580	10.49	461.6	391.37	0.0664	576.3	10.374	21.50	11.73	1.41
	59.55	15.48	64.32	0.00	0.0580	10.48	461.3	391.12	0.0662	576.0	10.368	21.49	11.72	1.41
	60.53	15.48	64.29	0.00	0.0580	10.48	461.2	391.23	0.0664	576.6	10.379	21.52	11.74	1.41
	61.53	15.48	64.32	0.00	0.0581	10.50	462.1	391.83	0.0661	576.6	10.379	21.51	11.74	1.41
	62.53	15.48	64.32	0.00	0.0580	10.49	461.5	391.34	0.0665	580.0	10.440	21.64	11.83	1.41
	63.53	15.50	64.32	0.00	0.0580	10.49	461.3	391.21	0.0665	581.9	10.475	21.71	11.88	1.41
	64.55	15.48	64.32	0.00	0.0579	10.44	459.4	389.55	0.0672	590.3	10.625	22.02	12.10	1.41
	65.53	15.50	64.32	0.00	0.0580	10.47	460.6	390.57	0.0669	584.9	10.528	21.82	11.96	1.41
	66.55	15.50	64.34	0.00	0.0581	10.47	460.8	390.64	0.0669	584.2	10.516	21.79	11.94	1.41
	67.53	15.50	64.32	0.00	0.0579	10.47	460.7	390.68	0.0670	584.9	10.528	21.82	11.96	1.41
	68.55	15.50	64.32	0.00	0.0580	10.49	461.4	391.24	0.0672	588.6	10.594	21.96	12.05	1.41
	69.53	15.50	64.29	0.00	0.0580	10.46	460.4	390.61	0.0671	591.2	10.641	22.07	12.12	1.41
	70.55	15.50	64.32	0.00	0.0580	10.47	460.5	390.48	0.0673	589.0	10.602	21.98	12.06	1.41
	71.53	15.52	64.32	0.00	0.0579	10.46	460.2	390.29	0.0675	590.8	10.634	22.04	12.11	1.41
	72.55	15.52	64.32	0.00	0.0580	10.46	460.0	390.12	0.0673	591.3	10.643	22.06	12.12	1.41
	73.53	15.50	64.29	0.00	0.0580	10.47	460.6	390.75	0.0674	591.6	10.649	22.08	12.13	1.41
	74.53	15.52	64.32	0.00	0.0580	10.45	460.0	390.10	0.0682	601.5	10.826	22.44	12.38	1.41
	75.53	15.52	64.32	0.00	0.0580	10.46	460.1	390.19	0.0677	594.6	10.703	22.19	12.21	1.41
	76.53	15.52	64.32	0.00	0.0579	10.45	459.8	389.89	0.0675	595.7	10.723	22.23	12.24	1.41
	77.53	15.53	64.32	0.00	0.0579	10.44	459.5	389.65	0.0680	597.6	10.756	22.30	12.28	1.41
	78.53	15.52	64.32	0.00	0.0578	10.42	458.6	388.91	0.0683	602.5	10.845	22.48	12.41	1.41
	79.61	15.52	64.29	0.00	0.0578	10.43	459.0	389.42	0.0683	603.4	10.861	22.52	12.43	1.41
	80.53	15.53	64.34	0.00	0.0577	10.42	458.6	388.83	0.0679	600.5	10.808	22.40	12.36	1.41
	81.56	15.53	64.32	0.00	0.0578	10.42	458.6	388.92	0.0682	600.1	10.802	22.39	12.35	1.41
	82.55	15.55	64.32	0.00	0.0577	10.42	458.5	388.86	0.0682	601.6	10.829	22.45	12.39	1.41
	83.56	15.53	64.29	0.00	0.0579	10.44	459.3	389.67	0.0684	602.7	10.848	22.50	12.41	1.41
	84.55	15.53	64.29	0.00	0.0578	10.41	457.8	388.43	0.0684	603.8	10.869	22.54	12.44	1.41
	85.55	15.55	64.32	0.00	0.0576	10.40	457.8	388.28	0.0685	604.6	10.884	22.56	12.46	1.41
	86.55	15.55	64.32	0.00	0.0578	10.41	457.8	388.31	0.0686	605.9	10.907	22.61	12.50	1.41
	87.55	15.55	64.29	0.00	0.0578	10.40	457.6	388.26	0.0686	605.8	10.905	22.62	12.49	1.41
	88.55	15.55	64.32	0.00	0.0578	10.40	457.7	388.18	0.0686	606.4	10.916	22.63	12.51	1.41
	89.55	15.53	64.32	0.00	0.0577	10.39	457.2	387.77	0.0689	608.8	10.958	22.72	12.57	1.41
	90.55	15.53	64.32	0.00	0.0576	10.38	456.7	387.28	0.0691	611.8	11.013	22.83	12.64	1.41
	91.55	15.55	64.32	0.00	0.0576	10.38	456.7	387.32	0.0689	609.9	10.978	22.76	12.60	1.41
	92.62	15.55	64.35	0.00	0.0575	10.37	456.1	386.71	0.0690	611.7	11.011	22.82	12.64	1.41
	93.55	15.55	64.32	0.00	0.0576	10.37	456.2	386.89	0.0690	611.2	11.002	22.81	12.63	1.41
	94.55	15.55	64.35	0.00	0.0576	10.36	455.6	386.27	0.0690	613.6	11.045	22.89	12.69	1.41
	95.55	15.55	64.32	0.00	0.0576	10.35	455.3	386.12	0.0692	614.3	11.057	22.92	12.70	1.41
	96.55	15.53	64.29	0.00	0.0575	10.34	455.1	386.15	0.0691	612.7	11.029	22.87	12.67	1.41
	97.55	15.57	64.32	0.00	0.0574	10.34	454.8	385.74	0.0694	616.2	11.092	23.00	12.76	1.41
	98.56	15.55	64.32	0.00	0.0573	10.33	454.4	385.36	0.0695	616.3	11.093	23.00	12.76	1.41
	99.55	15.55	64.30	0.00	0.0574	10.31	453.7	384.91	0.0696	617.9	11.123	23.07	12.80	1.41
	100.55	15.57	64.32	0.00	0.0570	10.21	449.2	380.97	0.0703	635.0	11.430	23.70	13.21	1.41
	101.55	15.58	64.32	0.00	0.0571	10.28	452.3	383.68	0.0695	616.8	11.102	23.02	12.77	1.41
	102.55	15.58	64.32	0.00	0.0570	10.27	451.7	383.12	0.0695	617.6	11.116	23.05	12.79	1.41
	103.55	15.57	64.32	0.00	0.0571	10.25	451.1	382.63	0.0694	616.9	11.105	23.02	12.77	1.41
	104.55	15.58	64.32	0.00	0.0569	10.24	450.6	382.20	0.0701	617.0	11.106	23.03	12.77	1.41
	105.55	15.58	64.32	0.00	0.0568	10.20	448.8	380.70	0.0701	626.6	11.279	23.39	13.01	1.41
	106.55	15.58	64.32	0.00	0.0569	10.21	449.4	381.20	0.0698	620.8	11.174	23.17	12.87	1.41
	107.62	15.58	64.32	0.00	0.0569	10.22	449.6	381.38	0.0693	616.7	11.101	23.02	12.77	1.41
	108.55	15.58	64.32	0.00	0.0568	10.20	448.8	380.72	0.0692	614.2	11.055	22.92	12.70	1.42
	109.56	15.58	64.29	0.00	0.0568	10.18	448.0	380.17	0.0696	620.5	11.169	23.17	12.86	1.41
	110.55	15.58	64.32	0.00	0.0566	10.16	447.1	379.27	0.0692	614.6	11.063	22.94	12.72	1.41
	111.56	15.60	64.32	0.00	0.0566	10.15	446.5	378.72	0.0692	616.4	11.096	23.01	12.76	1.41
	112.55	15.60	64.32	0.00	0.0565	10.14	446.0	378.36	0.0691	614.4	11.060	22.93	12.71	1.42
	113.56	15.58	64.32	0.00	0.0563	10.11	444.7	377.22	0.0692	613.0	11.034	22.88	12.67	1.41
	114.55	15.58	64.32	0.00	0.0563	10.10	444.4	376.97	0.0692	611.5	11.006	22.82	12.64	1.42
	115.55	15.60	64.32	0.00	0.0563	10.08	443.3	376.07	0.0690	612.0	11.016	22.84	12.65	1.42
	116.55	15.58	64.32	0.00	0.0562	10.06	442.8	375.61	0.0691	612.1	11.018	22.85	12.65	1.41
	117.55	15.60	64.32	0.00	0.0560	10.03	441.5	374.50	0.0691	612.1	11.018	22.85	12.65	1.41
	118.55	15.61	64.32	0.00	0.0559	10.01	440.2	373.45	0.0691	612.8	11.030	22.87	12.67	1.42
	119.55	15.61	64.29	0.00	0.0558	9.97	438.6	372.20	0.0691	611.9	11.014	22.85	12.65	1.42
	120.55	15.63	64.29	0.00	0.0557	9.93	437.1	371.00	0.0691	611.7	11.010	22.84	12.64	1.42
	121.55	15.61	64.29	0.00	0.0555	9.91	435.9	369.97	0.0691	611.1	11.001	22.82	12.63	1.42
	122.55	15.63	64.32	0.00	0.0554	9.87	434.1	368.27	0.0688	610.0	10.980	22.77	12.60	1.42
	123.77	15.61	64.29	0.00	0.0553	9.83	432.6	367.16	0.0690	610.0	10.980	22.78	12.60	1.42
	124.53	15.63	64.32	0.00	0.0551	9.80	431.3	365.85	0.0690	609.5	10.971	22.75	12.59	1.42
	125.55	15.63	64.32	0.00	0.0548	9.76	429.2	364.15	0.0690	612.1	11.019	22.85	12.66	1.42
	126.61	15.63	64.34	0.00	0.0545	9.70	426.8	361.96	0.0692	612.0	11.015	22.84	12.65	1.42
	127.55	15.63	64.32	0.00	0.0544	9.65	424.4	360.08	0.0690	612.2	11.020	22.85	12.66	1.42
	128.55	15.63	64.32	0.00	0.0542	9.62	423.3	359.10	0.0689	611.4	11.005	22.82	12.64	1.42
	129.55	15.63	64.32	0.00	0.0539	9.56	420.7	356.88	0.0693	611.3	11.004	22.82	12.64	1.42
	130.55	15.63	64.32	0.00	0.0540	9.55	420.1	356.36	0.0686	605.2	10.893	22.59	12.48	1.42
	131.55	15.65	64.28	0.00	0.0538	9.51	418.3	355.11	0.0685	605.6	10.900	22.62	12.49	1.42
	132.55	15.63	64.27	0.00	0.0533	9.42	414.4	351.83	0.0689	609.3	10.967	22.76	12.58	1.42
	133.53	15.63	64.32	0.00	0.0529	9.33	410.7	348.42	0.0693	612.0	11.016	22.84	12.65	1.42
	134.55	15.65	64.29	0.00	0.0527	9.28	408.4	346.59	0.0685	606.2	10.912	22.64	12.51	1.42
	135.53	15.65	64.32	0.00	0.0524	9.24	406.8	345.10	0.0684	604.1	10.874	22.55	12.46	1.42
	136.55	15.68	64.37	0.00	0.0523	9.19	404.6	343.03	0.0684	603.8	10.868	22.52	12.45	1.42
	137.53	15.66	64.29	0.00	0.0521	9.16	403.2	342.24	0.0682	603.2	10.858	22.53	12.43	1.42
