Mar 13 2018 at 9:46:29
Frequency: 1.00Hz.
CO2
Zero:  Value:0.91  Date:May 19 2009 at 7:53:33 AM
Span:  Value:1.00  Date:May 19 2009 at 8:00:06 AM
H2O
Zero:  Value:0.77  Date:May 19 2009 at 7:54:01 AM
Span:  Value:1.01  Date:28 Jun 2004	 at 08:29:05	
In cloud roll, temperature drop 50%
	Relative Time	Temperature	Pressure	Aux Input	CO2 Absorptance	CO2 mmol/m3	CO2 mg/m3	CO2 umol/mol	H2O Absorptance	H2O mmol/m3	H2O g/m3	H2O mmol/mol	H2O(°C)	Cooler Voltage
	0.08	23.03	65.91	0.00	0.0606	11.00	484.1	411.05	0.0585	479.5	8.631	17.91	9.36	1.41
	1.09	23.05	65.91	0.00	0.0606	11.00	483.9	410.92	0.0585	478.7	8.616	17.88	9.34	1.41
	2.08	23.05	65.91	0.00	0.0606	11.00	483.9	410.89	0.0585	478.8	8.618	17.89	9.34	1.41
	3.09	23.03	65.91	0.00	0.0606	11.00	484.0	410.99	0.0586	479.8	8.636	17.92	9.37	1.41
	4.08	23.05	65.91	0.00	0.0605	11.00	484.1	411.12	0.0588	481.6	8.668	17.99	9.43	1.41
	5.09	23.05	65.91	0.00	0.0606	11.00	484.1	411.08	0.0587	481.6	8.669	17.99	9.43	1.41
	6.08	23.03	65.88	0.00	0.0607	11.01	484.3	411.43	0.0589	482.3	8.682	18.03	9.45	1.41
	7.09	23.05	65.91	0.00	0.0608	11.04	485.6	412.36	0.0589	483.7	8.707	18.07	9.49	1.41
	8.16	23.05	65.91	0.00	0.0607	11.02	484.7	411.61	0.0589	483.0	8.694	18.05	9.47	1.41
	9.09	23.05	65.91	0.00	0.0606	11.02	484.7	411.61	0.0589	483.8	8.709	18.08	9.50	1.41
	10.09	23.05	65.91	0.00	0.0606	11.02	484.8	411.66	0.0591	485.4	8.737	18.14	9.54	1.41
	11.09	23.05	65.91	0.00	0.0607	11.04	485.7	412.41	0.0591	486.2	8.751	18.16	9.57	1.41
	12.09	23.01	65.90	0.00	0.0609	11.05	486.3	412.90	0.0591	486.4	8.755	18.17	9.57	1.42
	13.09	23.05	65.91	0.00	0.0608	11.06	486.7	413.33	0.0592	486.4	8.755	18.17	9.57	1.41
	14.09	23.05	65.91	0.00	0.0610	11.05	486.0	412.69	0.0593	487.2	8.769	18.20	9.60	1.41
	15.09	23.05	65.88	0.00	0.0608	11.05	486.2	413.00	0.0595	489.0	8.802	18.28	9.65	1.41
	16.09	23.05	65.93	0.00	0.0609	11.05	486.2	412.73	0.0593	488.3	8.789	18.24	9.63	1.41
	17.09	23.05	65.91	0.00	0.0608	11.09	487.9	414.28	0.0593	489.3	8.808	18.28	9.66	1.42
	18.09	23.06	65.91	0.00	0.0608	11.06	486.4	413.10	0.0596	491.9	8.855	18.38	9.74	1.41
	19.08	23.05	65.93	0.00	0.0609	11.06	486.6	413.08	0.0596	491.4	8.845	18.35	9.73	1.41
	20.09	23.05	65.91	0.00	0.0609	11.07	487.1	413.66	0.0596	492.7	8.869	18.41	9.77	1.41
	21.08	23.06	65.91	0.00	0.0609	11.08	487.5	414.00	0.0596	491.7	8.851	18.37	9.74	1.41
	22.09	23.05	65.89	0.00	0.0610	11.08	487.5	414.08	0.0598	493.6	8.884	18.45	9.79	1.42
	23.08	23.05	65.89	0.00	0.0610	11.08	487.6	414.16	0.0598	493.8	8.888	18.46	9.80	1.42
	24.09	23.03	65.91	0.00	0.0610	11.09	487.7	414.16	0.0598	494.7	8.904	18.48	9.82	1.42
	25.08	23.03	65.86	0.00	0.0610	11.09	487.8	414.53	0.0598	494.5	8.900	18.49	9.82	1.41
	26.09	23.03	65.91	0.00	0.0609	11.08	487.7	414.10	0.0599	494.3	8.898	18.47	9.81	1.41
	27.08	23.03	65.91	0.00	0.0610	11.09	488.2	414.52	0.0600	495.9	8.926	18.53	9.86	1.41
	28.09	23.03	65.91	0.00	0.0611	11.10	488.6	414.85	0.0602	497.1	8.948	18.57	9.90	1.42
	29.16	23.03	65.89	0.00	0.0610	11.11	488.7	415.08	0.0600	497.3	8.952	18.59	9.90	1.42
	30.09	23.03	65.88	0.00	0.0610	11.11	488.8	415.19	0.0602	498.3	8.969	18.62	9.93	1.41
	31.16	23.03	65.91	0.00	0.0611	11.11	488.8	415.06	0.0602	497.8	8.961	18.60	9.92	1.42
	32.09	23.01	65.91	0.00	0.0610	11.11	489.0	415.22	0.0603	499.1	8.984	18.65	9.96	1.41
	33.08	23.03	65.91	0.00	0.0611	11.12	489.1	415.33	0.0603	499.1	8.984	18.65	9.96	1.41
	34.09	23.03	65.91	0.00	0.0611	11.12	489.2	415.43	0.0603	499.1	8.983	18.65	9.96	1.42
	35.16	23.01	65.91	0.00	0.0611	11.12	489.2	415.37	0.0603	499.5	8.992	18.66	9.97	1.42
	36.09	23.03	65.89	0.00	0.0611	11.13	489.5	415.83	0.0603	500.5	9.008	18.70	10.00	1.41
	37.16	23.05	65.91	0.00	0.0612	11.13	489.7	415.81	0.0605	501.1	9.020	18.72	10.02	1.42
	38.09	23.03	65.89	0.00	0.0612	11.13	489.8	416.06	0.0605	501.9	9.034	18.76	10.04	1.41
	39.09	23.03	65.91	0.00	0.0611	11.13	489.6	415.70	0.0604	501.2	9.022	18.73	10.02	1.42
	40.09	23.01	65.89	0.00	0.0612	11.13	489.8	416.06	0.0606	502.8	9.051	18.79	10.07	1.42
	41.09	23.03	65.91	0.00	0.0611	11.13	489.9	416.00	0.0606	504.3	9.077	18.84	10.11	1.42
	42.09	23.03	65.91	0.00	0.0612	11.14	490.2	416.26	0.0607	504.2	9.075	18.84	10.11	1.41
	43.09	23.01	65.91	0.00	0.0612	11.14	490.2	416.25	0.0608	504.7	9.085	18.86	10.12	1.42
	44.09	23.01	65.89	0.00	0.0612	11.15	490.5	416.57	0.0608	504.8	9.087	18.87	10.13	1.42
	45.09	23.03	65.91	0.00	0.0612	11.15	490.4	416.43	0.0609	504.8	9.086	18.86	10.13	1.42
	46.09	23.03	65.91	0.00	0.0613	11.15	490.7	416.69	0.0608	506.8	9.122	18.93	10.19	1.42
	47.09	23.03	65.91	0.00	0.0612	11.15	490.6	416.62	0.0609	507.1	9.127	18.94	10.19	1.42
	48.09	22.99	65.89	0.00	0.0613	11.15	490.8	416.80	0.0610	508.1	9.145	18.99	10.22	1.42
	49.09	23.03	65.91	0.00	0.0613	11.16	490.9	416.88	0.0611	508.1	9.146	18.98	10.22	1.42
	50.08	23.01	65.91	0.00	0.0613	11.16	491.0	416.88	0.0611	508.1	9.146	18.98	10.22	1.42
	51.09	23.03	65.91	0.00	0.0612	11.16	491.0	416.93	0.0611	508.8	9.159	19.01	10.25	1.42
	52.08	22.97	65.91	0.00	0.0613	11.17	491.3	417.08	0.0612	510.1	9.182	19.06	10.28	1.42
	53.09	22.99	65.91	0.00	0.0613	11.17	491.4	417.19	0.0613	511.3	9.203	19.10	10.32	1.42
	54.08	23.01	65.89	0.00	0.0613	11.17	491.4	417.39	0.0613	510.7	9.192	19.09	10.30	1.42
	55.09	22.99	65.91	0.00	0.0613	11.17	491.4	417.18	0.0613	511.3	9.203	19.10	10.32	1.42
	56.08	22.99	65.89	0.00	0.0613	11.17	491.6	417.51	0.0614	512.4	9.222	19.15	10.35	1.42
	57.09	22.99	65.88	0.00	0.0613	11.18	491.7	417.65	0.0615	513.2	9.237	19.18	10.37	1.42
	58.09	23.01	65.91	0.00	0.0614	11.18	491.8	417.59	0.0615	513.3	9.239	19.18	10.38	1.42
	59.09	23.00	65.91	0.00	0.0614	11.18	491.7	417.48	0.0615	513.8	9.248	19.19	10.39	1.42
	60.17	22.99	65.91	0.00	0.0613	11.18	492.0	417.73	0.0615	514.7	9.265	19.23	10.42	1.42
	61.09	23.01	65.91	0.00	0.0613	11.18	492.0	417.71	0.0616	514.9	9.267	19.23	10.42	1.42
	62.16	22.99	65.91	0.00	0.0613	11.18	492.0	417.70	0.0617	515.7	9.283	19.27	10.45	1.42
	63.09	23.01	65.91	0.00	0.0614	11.18	492.1	417.80	0.0617	516.1	9.289	19.28	10.46	1.42
	64.16	22.99	65.91	0.00	0.0615	11.18	492.1	417.83	0.0618	516.4	9.296	19.29	10.47	1.42
	65.09	23.01	65.91	0.00	0.0614	11.18	492.1	417.85	0.0618	516.3	9.293	19.29	10.46	1.42
	66.09	23.00	65.91	0.00	0.0614	11.19	492.4	418.02	0.0619	518.1	9.325	19.35	10.51	1.42
	67.09	23.01	65.91	0.00	0.0614	11.19	492.4	418.05	0.0619	518.5	9.334	19.37	10.53	1.42
	68.09	23.01	65.89	0.00	0.0614	11.19	492.6	418.36	0.0619	518.1	9.325	19.36	10.52	1.42
	69.09	23.01	65.91	0.00	0.0614	11.19	492.5	418.18	0.0619	518.2	9.327	19.36	10.52	1.42
	70.09	23.01	65.88	0.00	0.0614	11.19	492.6	418.40	0.0619	518.8	9.338	19.39	10.53	1.42
	71.09	23.01	65.93	0.00	0.0614	11.19	492.5	418.02	0.0621	520.9	9.377	19.45	10.60	1.42
	72.09	23.01	65.89	0.00	0.0615	11.20	492.7	418.48	0.0620	520.2	9.364	19.44	10.58	1.42
	73.09	23.01	65.91	0.00	0.0615	11.20	492.8	418.41	0.0622	520.3	9.365	19.44	10.58	1.42
	74.09	23.00	65.89	0.00	0.0615	11.20	492.9	418.62	0.0623	521.8	9.393	19.50	10.62	1.42
	75.09	23.00	65.91	0.00	0.0615	11.20	492.9	418.52	0.0622	522.0	9.395	19.50	10.63	1.42
	76.09	22.96	65.86	0.00	0.0614	11.21	493.0	418.84	0.0621	521.9	9.394	19.51	10.62	1.42
	77.09	23.01	65.91	0.00	0.0615	11.21	493.1	418.67	0.0623	523.0	9.414	19.54	10.66	1.42
	78.09	23.00	65.91	0.00	0.0615	11.21	493.3	418.80	0.0624	523.6	9.425	19.56	10.67	1.42
	79.09	23.00	65.91	0.00	0.0615	11.21	493.2	418.72	0.0624	522.7	9.408	19.53	10.65	1.42
	80.09	23.00	65.91	0.00	0.0615	11.21	493.3	418.79	0.0624	523.6	9.425	19.56	10.67	1.42
	81.09	23.00	65.91	0.00	0.0615	11.21	493.4	418.88	0.0623	524.3	9.438	19.59	10.69	1.42
	82.09	23.00	65.93	0.00	0.0615	11.21	493.3	418.66	0.0625	525.2	9.453	19.61	10.72	1.42
	83.09	22.97	65.91	0.00	0.0615	11.22	493.5	418.97	0.0624	524.7	9.445	19.60	10.70	1.42
	84.09	23.00	65.91	0.00	0.0615	11.21	493.5	418.95	0.0624	525.7	9.463	19.64	10.73	1.42
	85.08	23.02	65.89	0.00	0.0615	11.22	493.6	419.26	0.0624	525.2	9.454	19.63	10.72	1.42
	86.09	23.00	65.91	0.00	0.0615	11.22	493.7	419.20	0.0625	525.9	9.466	19.65	10.74	1.42
	87.09	23.00	65.91	0.00	0.0616	11.22	493.8	419.28	0.0626	528.4	9.512	19.74	10.81	1.42
	88.09	23.00	65.93	0.00	0.0615	11.22	493.7	419.05	0.0626	527.0	9.485	19.68	10.77	1.42
	89.17	23.00	65.91	0.00	0.0615	11.22	493.8	419.26	0.0626	528.4	9.512	19.74	10.81	1.42
	90.09	22.98	65.93	0.00	0.0615	11.22	493.8	419.09	0.0627	527.2	9.490	19.69	10.78	1.42
	91.17	22.98	65.91	0.00	0.0615	11.23	493.9	419.32	0.0628	528.3	9.510	19.74	10.81	1.42
	92.09	22.98	65.91	0.00	0.0616	11.23	494.1	419.48	0.0628	529.5	9.530	19.78	10.84	1.42
	93.09	23.01	65.91	0.00	0.0615	11.23	494.0	419.45	0.0628	529.2	9.525	19.77	10.83	1.42
	94.09	22.96	65.89	0.00	0.0616	11.23	494.3	419.73	0.0629	531.3	9.563	19.85	10.89	1.42
	95.09	23.00	65.91	0.00	0.0616	11.23	494.3	419.66	0.0630	530.3	9.546	19.81	10.87	1.42
	96.09	23.00	65.88	0.00	0.0616	11.23	494.3	419.81	0.0630	531.9	9.575	19.88	10.91	1.42
	97.09	23.00	65.88	0.00	0.0616	11.24	494.4	419.96	0.0630	531.3	9.564	19.86	10.89	1.42
	98.09	23.00	65.91	0.00	0.0616	11.24	494.4	419.77	0.0629	531.5	9.567	19.86	10.90	1.42
	99.09	23.00	65.91	0.00	0.0617	11.24	494.4	419.75	0.0630	531.2	9.562	19.84	10.89	1.42
	100.09	23.02	65.91	0.00	0.0616	11.24	494.4	419.81	0.0632	533.7	9.607	19.94	10.96	1.42
	101.09	23.00	65.89	0.00	0.0616	11.24	494.6	420.04	0.0632	534.0	9.612	19.96	10.97	1.42
	102.09	22.98	65.89	0.00	0.0616	11.24	494.6	420.06	0.0633	533.8	9.608	19.95	10.96	1.42
	103.09	23.00	65.91	0.00	0.0616	11.24	494.6	419.94	0.0632	533.6	9.604	19.93	10.96	1.42
	104.09	22.98	65.91	0.00	0.0616	11.25	494.8	420.11	0.0631	534.1	9.613	19.95	10.97	1.42
	105.09	23.00	65.89	0.00	0.0616	11.24	494.7	420.14	0.0633	534.1	9.613	19.96	10.97	1.42
	106.09	22.94	65.86	0.00	0.0617	11.25	494.8	420.31	0.0634	536.4	9.655	20.05	11.03	1.42
	107.09	23.00	65.91	0.00	0.0616	11.25	495.0	420.24	0.0634	536.4	9.655	20.04	11.04	1.42
	108.09	22.98	65.88	0.00	0.0617	11.25	494.9	420.36	0.0634	535.5	9.639	20.01	11.01	1.42
	109.09	22.94	65.91	0.00	0.0617	11.25	495.2	420.35	0.0635	536.8	9.663	20.05	11.05	1.42
	110.09	22.96	65.91	0.00	0.0617	11.25	494.9	420.16	0.0635	537.4	9.674	20.07	11.06	1.42
	111.09	22.96	65.88	0.00	0.0616	11.25	494.9	420.26	0.0635	537.6	9.677	20.09	11.07	1.42
	112.09	22.98	65.89	0.00	0.0617	11.25	495.2	420.56	0.0636	538.1	9.685	20.11	11.08	1.42
	113.09	23.00	65.91	0.00	0.0617	11.25	495.0	420.29	0.0635	537.8	9.680	20.09	11.08	1.42
	114.09	22.98	65.91	0.00	0.0616	11.25	495.1	420.35	0.0636	538.4	9.692	20.11	11.09	1.42
	115.09	22.98	65.91	0.00	0.0617	11.25	495.2	420.42	0.0636	538.5	9.693	20.12	11.09	1.42
	116.11	22.98	65.91	0.00	0.0617	11.26	495.3	420.47	0.0637	539.7	9.714	20.16	11.13	1.42
	117.09	22.98	65.91	0.00	0.0617	11.26	495.3	420.52	0.0638	540.4	9.728	20.19	11.15	1.42
	118.09	22.98	65.91	0.00	0.0617	11.26	495.3	420.48	0.0637	540.1	9.722	20.18	11.14	1.42
	119.09	22.98	65.89	0.00	0.0617	11.26	495.4	420.71	0.0638	541.2	9.741	20.22	11.17	1.42
	120.09	22.98	65.91	0.00	0.0617	11.26	495.4	420.58	0.0638	540.6	9.730	20.19	11.15	1.42
	121.11	22.98	65.91	0.00	0.0617	11.26	495.5	420.65	0.0638	541.2	9.742	20.22	11.17	1.42
	122.11	22.96	65.88	0.00	0.0617	11.26	495.3	420.63	0.0638	541.4	9.745	20.23	11.17	1.42
	123.11	22.98	65.91	0.00	0.0617	11.26	495.6	420.75	0.0639	542.6	9.767	20.27	11.21	1.42
	124.11	22.98	65.90	0.00	0.0617	11.26	495.4	420.62	0.0640	542.9	9.772	20.28	11.22	1.42
	125.11	22.98	65.91	0.00	0.0617	11.26	495.6	420.76	0.0639	543.2	9.777	20.29	11.22	1.42
	126.11	22.98	65.91	0.00	0.0617	11.26	495.5	420.65	0.0639	543.8	9.788	20.31	11.24	1.42
	127.09	23.00	65.91	0.00	0.0617	11.26	495.5	420.72	0.0641	543.8	9.789	20.32	11.24	1.42
