Mar 13 2018 at 10:05:43
Frequency: 1.00Hz.
CO2
Zero:  Value:0.91  Date:May 19 2009 at 7:53:33 AM
Span:  Value:1.00  Date:May 19 2009 at 8:00:06 AM
H2O
Zero:  Value:0.77  Date:May 19 2009 at 7:54:01 AM
Span:  Value:1.01  Date:28 Jun 2004	 at 08:29:05	
Cloud and fog, low temps
	Relative Time	Temperature	Pressure	Aux Input	CO2 Absorptance	CO2 mmol/m3	CO2 mg/m3	CO2 umol/mol	H2O Absorptance	H2O mmol/m3	H2O g/m3	H2O mmol/mol	H2O(°C)	Cooler Voltage
	0.80	23.05	65.91	0.00	0.0597	10.80	475.2	403.54	0.0582	474.0	8.532	17.71	9.19	1.44
	1.80	23.03	65.91	0.00	0.0597	10.80	475.1	403.39	0.0583	475.8	8.565	17.78	9.25	1.45
	2.80	23.05	65.91	0.00	0.0597	10.79	474.8	403.21	0.0584	475.9	8.567	17.78	9.25	1.44
	3.80	23.05	65.91	0.00	0.0598	10.80	475.0	403.38	0.0585	479.6	8.632	17.92	9.36	1.44
	4.80	23.05	65.91	0.00	0.0597	10.79	474.6	403.00	0.0590	480.4	8.648	17.95	9.39	1.44
	5.78	23.05	65.91	0.00	0.0597	10.79	474.8	403.17	0.0588	478.9	8.620	17.89	9.34	1.44
	6.80	23.07	65.91	0.00	0.0597	10.79	474.9	403.33	0.0586	481.0	8.659	17.97	9.41	1.44
	7.88	23.05	65.91	0.00	0.0597	10.78	474.5	402.96	0.0589	481.1	8.659	17.97	9.41	1.45
	8.80	23.05	65.91	0.00	0.0597	10.80	475.0	403.37	0.0589	483.8	8.708	18.08	9.49	1.44
	9.80	23.05	65.91	0.00	0.0597	10.79	474.9	403.26	0.0590	484.6	8.723	18.11	9.52	1.44
	10.80	23.06	65.91	0.00	0.0597	10.80	475.0	403.38	0.0589	482.9	8.693	18.05	9.47	1.44
	11.80	23.06	65.91	0.00	0.0597	10.80	475.2	403.54	0.0591	485.7	8.742	18.15	9.55	1.44
	12.80	23.05	65.91	0.00	0.0597	10.80	475.1	403.46	0.0593	488.2	8.787	18.24	9.63	1.44
	13.80	23.05	65.91	0.00	0.0596	10.79	474.8	403.20	0.0593	487.9	8.781	18.23	9.62	1.45
	14.80	23.05	65.89	0.00	0.0597	10.80	475.1	403.61	0.0595	490.1	8.822	18.32	9.69	1.44
	15.80	23.01	65.86	0.00	0.0597	10.81	475.7	404.19	0.0597	492.9	8.871	18.42	9.77	1.44
	16.78	23.05	65.86	0.00	0.0597	10.80	475.3	403.88	0.0597	493.6	8.885	18.46	9.79	1.44
	17.80	23.05	65.91	0.00	0.0598	10.81	475.6	403.88	0.0598	494.2	8.895	18.46	9.81	1.44
	18.88	23.03	65.89	0.00	0.0598	10.82	476.1	404.37	0.0598	494.7	8.905	18.49	9.83	1.45
	19.80	23.05	65.91	0.00	0.0597	10.81	475.7	403.95	0.0596	495.6	8.921	18.52	9.85	1.45
	20.80	23.06	65.88	0.00	0.0599	10.83	476.6	404.94	0.0603	497.9	8.963	18.61	9.92	1.44
	21.80	23.08	65.91	0.00	0.0599	10.83	476.6	404.75	0.0600	496.0	8.929	18.54	9.87	1.44
	22.80	23.08	65.91	0.00	0.0598	10.82	476.3	404.50	0.0601	498.7	8.977	18.64	9.95	1.44
	23.80	23.06	65.91	0.00	0.0597	10.83	476.6	404.70	0.0601	497.6	8.958	18.59	9.92	1.44
	24.80	23.06	65.91	0.00	0.0599	10.83	476.6	404.74	0.0605	502.3	9.042	18.77	10.06	1.45
	25.80	23.05	65.89	0.00	0.0599	10.87	478.3	406.30	0.0603	502.3	9.041	18.77	10.05	1.44
	26.80	23.06	65.91	0.00	0.0600	10.83	476.6	404.77	0.0607	502.1	9.037	18.76	10.05	1.44
	27.80	23.06	65.91	0.00	0.0600	10.85	477.5	405.49	0.0605	503.1	9.057	18.80	10.08	1.44
	28.80	23.06	65.89	0.00	0.0599	10.84	476.9	405.17	0.0606	502.8	9.051	18.80	10.07	1.44
	29.88	23.03	65.91	0.00	0.0599	10.86	477.9	405.80	0.0605	504.0	9.073	18.83	10.10	1.44
	30.80	23.04	65.91	0.00	0.0601	10.86	477.8	405.73	0.0608	505.1	9.092	18.87	10.14	1.45
	31.80	23.06	65.88	0.00	0.0600	10.85	477.6	405.76	0.0606	505.0	9.091	18.88	10.14	1.44
	32.80	23.06	65.91	0.00	0.0600	10.87	478.4	406.26	0.0610	507.7	9.139	18.97	10.22	1.44
	33.80	23.06	65.88	0.00	0.0600	10.86	477.9	406.02	0.0608	507.0	9.125	18.95	10.19	1.44
	34.80	23.04	65.91	0.00	0.0600	10.87	478.1	406.01	0.0609	507.5	9.135	18.96	10.21	1.44
	35.80	23.08	65.88	0.00	0.0601	10.87	478.2	406.32	0.0610	507.5	9.134	18.97	10.21	1.45
	36.80	23.06	65.91	0.00	0.0601	10.87	478.4	406.29	0.0612	509.1	9.164	19.02	10.26	1.45
	37.80	23.06	65.91	0.00	0.0601	10.89	479.0	406.76	0.0614	510.6	9.192	19.08	10.30	1.44
	38.80	23.05	65.89	0.00	0.0601	10.89	479.0	406.87	0.0614	511.0	9.198	19.10	10.31	1.44
	39.80	23.06	65.91	0.00	0.0601	10.89	479.3	407.07	0.0614	513.0	9.235	19.17	10.37	1.44
	40.88	23.06	65.93	0.00	0.0602	10.89	479.0	406.65	0.0616	511.9	9.215	19.12	10.34	1.44
	41.80	23.06	65.89	0.00	0.0601	10.89	479.4	407.23	0.0614	513.2	9.238	19.18	10.38	1.44
	42.80	23.06	65.91	0.00	0.0602	10.89	479.3	407.07	0.0615	514.1	9.255	19.21	10.40	1.45
	43.80	23.04	65.89	0.00	0.0602	10.90	479.6	407.36	0.0615	514.1	9.253	19.21	10.40	1.44
	44.80	23.06	65.91	0.00	0.0602	10.90	479.5	407.18	0.0615	514.8	9.266	19.23	10.42	1.45
	45.80	23.09	65.91	0.00	0.0601	10.89	479.2	406.98	0.0617	515.9	9.287	19.28	10.46	1.45
	46.80	23.06	65.91	0.00	0.0602	10.90	479.5	407.21	0.0616	513.7	9.247	19.20	10.39	1.44
	47.80	23.08	65.91	0.00	0.0602	10.91	480.1	407.70	0.0618	516.5	9.296	19.30	10.47	1.44
	48.80	23.08	65.91	0.00	0.0602	10.91	480.0	407.66	0.0617	517.0	9.306	19.32	10.49	1.45
	49.88	23.10	65.91	0.00	0.0602	10.91	480.0	407.71	0.0618	517.7	9.318	19.35	10.51	1.45
	50.80	23.08	65.90	0.00	0.0602	10.91	479.9	407.64	0.0619	518.3	9.329	19.37	10.53	1.44
	51.88	23.12	65.91	0.00	0.0602	10.92	480.6	408.22	0.0621	520.6	9.371	19.46	10.59	1.44
	52.80	23.08	65.91	0.00	0.0603	10.93	480.7	408.26	0.0622	519.3	9.347	19.40	10.55	1.44
	53.80	23.06	65.91	0.00	0.0603	10.93	480.8	408.29	0.0619	520.6	9.371	19.45	10.59	1.45
	54.80	23.08	65.89	0.00	0.0602	10.92	480.5	408.21	0.0620	519.3	9.347	19.41	10.55	1.45
	55.80	23.10	65.91	0.00	0.0603	10.93	480.8	408.39	0.0622	522.3	9.401	19.52	10.64	1.44
	56.80	23.06	65.91	0.00	0.0603	10.93	480.8	408.30	0.0623	522.9	9.412	19.54	10.66	1.44
	57.80	23.04	65.88	0.00	0.0603	10.93	480.9	408.56	0.0623	522.9	9.411	19.54	10.65	1.44
	58.80	23.06	65.89	0.00	0.0603	10.93	481.1	408.71	0.0623	523.4	9.421	19.56	10.67	1.45
	59.80	23.06	65.88	0.00	0.0604	10.94	481.4	408.96	0.0625	524.3	9.437	19.60	10.70	1.45
	60.80	23.08	65.91	0.00	0.0603	10.95	481.6	409.03	0.0623	524.5	9.441	19.60	10.70	1.44
	61.80	23.06	65.91	0.00	0.0604	10.95	482.0	409.29	0.0625	526.1	9.471	19.66	10.75	1.45
	62.88	23.08	65.91	0.00	0.0604	10.96	482.2	409.53	0.0626	526.9	9.484	19.69	10.77	1.44
	63.80	23.08	65.91	0.00	0.0604	10.94	481.5	408.96	0.0626	525.8	9.464	19.65	10.74	1.44
	64.80	23.08	65.91	0.00	0.0604	10.96	482.2	409.48	0.0627	526.4	9.475	19.67	10.76	1.45
	65.80	23.08	65.89	0.00	0.0603	10.94	481.5	409.04	0.0627	526.2	9.471	19.67	10.75	1.45
	66.80	23.10	65.91	0.00	0.0604	10.96	482.2	409.54	0.0627	528.5	9.512	19.75	10.82	1.44
	67.80	23.10	65.91	0.00	0.0604	10.95	481.7	409.16	0.0626	526.2	9.471	19.66	10.75	1.44
	68.80	23.10	65.88	0.00	0.0605	10.97	482.8	410.19	0.0629	527.6	9.497	19.73	10.79	1.44
	69.80	23.08	65.91	0.00	0.0604	10.96	482.2	409.55	0.0629	529.1	9.523	19.77	10.83	1.44
	70.80	23.08	65.91	0.00	0.0604	10.97	482.5	409.75	0.0628	529.2	9.526	19.78	10.84	1.45
	71.88	23.08	65.91	0.00	0.0604	10.98	483.2	410.35	0.0627	530.3	9.546	19.82	10.87	1.45
	72.80	23.04	65.86	0.00	0.0605	10.97	482.7	410.19	0.0629	529.9	9.539	19.81	10.86	1.44
	73.81	23.10	65.91	0.00	0.0605	10.97	482.7	409.94	0.0628	530.5	9.549	19.83	10.88	1.45
	74.80	23.10	65.86	0.00	0.0606	10.98	483.3	410.80	0.0630	531.4	9.565	19.87	10.90	1.44
	75.80	23.10	65.91	0.00	0.0606	10.99	483.6	410.71	0.0633	536.7	9.661	20.06	11.05	1.45
	76.80	23.10	65.89	0.00	0.0605	10.97	482.7	410.11	0.0630	531.6	9.568	19.87	10.91	1.45
	77.80	23.10	65.89	0.00	0.0605	10.98	483.2	410.56	0.0631	532.0	9.577	19.89	10.92	1.45
	78.80	23.10	65.91	0.00	0.0605	10.99	483.4	410.58	0.0632	534.2	9.615	19.96	10.98	1.44
	79.80	23.10	65.91	0.00	0.0606	11.00	483.8	410.90	0.0632	534.0	9.613	19.96	10.98	1.45
	80.80	23.10	65.89	0.00	0.0606	10.99	483.6	410.85	0.0632	534.0	9.612	19.96	10.97	1.45
	81.80	23.10	65.91	0.00	0.0606	11.01	484.4	411.41	0.0634	535.1	9.631	20.00	11.00	1.45
	82.88	23.08	65.89	0.00	0.0606	10.99	483.6	410.88	0.0633	534.9	9.628	19.99	11.00	1.45
	83.80	23.10	65.91	0.00	0.0606	10.99	483.7	410.78	0.0633	535.0	9.629	19.99	11.00	1.45
	84.81	23.10	65.91	0.00	0.0606	11.01	484.5	411.46	0.0634	536.5	9.658	20.05	11.05	1.45
	85.80	23.10	65.91	0.00	0.0607	11.00	484.1	411.20	0.0636	536.4	9.655	20.05	11.04	1.45
	86.80	23.10	65.91	0.00	0.0607	11.02	484.7	411.67	0.0635	537.1	9.669	20.07	11.06	1.45
	87.80	23.10	65.86	0.00	0.0607	11.02	484.8	412.08	0.0635	538.3	9.690	20.13	11.10	1.45
	88.80	23.08	65.91	0.00	0.0607	11.00	484.2	411.19	0.0635	536.9	9.664	20.06	11.05	1.45
	89.80	23.10	65.89	0.00	0.0606	11.01	484.4	411.58	0.0635	539.0	9.702	20.15	11.12	1.45
	90.80	23.10	65.91	0.00	0.0606	11.02	484.8	411.74	0.0636	539.2	9.706	20.15	11.12	1.44
	91.80	23.10	65.88	0.00	0.0606	11.01	484.5	411.63	0.0636	537.8	9.681	20.11	11.08	1.45
	92.80	23.10	65.91	0.00	0.0607	11.02	484.7	411.70	0.0636	538.1	9.686	20.11	11.09	1.45
	93.88	23.10	65.91	0.00	0.0607	11.02	484.8	411.79	0.0636	538.8	9.699	20.14	11.11	1.45
	94.80	23.10	65.91	0.00	0.0606	11.02	484.8	411.77	0.0637	540.0	9.721	20.18	11.14	1.45
	95.81	23.10	65.89	0.00	0.0607	11.04	485.6	412.57	0.0638	540.7	9.733	20.21	11.16	1.45
	96.80	23.08	65.91	0.00	0.0608	11.03	485.2	412.07	0.0638	540.3	9.725	20.19	11.15	1.45
	97.80	23.12	65.89	0.00	0.0607	11.04	485.8	412.80	0.0638	541.4	9.745	20.24	11.18	1.45
	98.80	23.10	65.91	0.00	0.0607	11.03	485.2	412.11	0.0638	540.4	9.727	20.19	11.15	1.45
	99.80	23.10	65.91	0.00	0.0608	11.05	486.4	413.12	0.0640	543.3	9.780	20.30	11.24	1.45
	100.80	23.10	65.91	0.00	0.0608	11.05	486.0	412.76	0.0640	542.8	9.770	20.28	11.22	1.45
	101.80	23.10	65.90	0.00	0.0608	11.05	486.1	412.92	0.0640	542.9	9.773	20.29	11.22	1.45
	102.80	23.10	65.88	0.00	0.0608	11.05	486.0	412.97	0.0640	543.6	9.785	20.32	11.24	1.45
	103.80	23.10	65.91	0.00	0.0608	11.05	486.3	413.05	0.0639	543.9	9.791	20.33	11.25	1.45
	104.88	23.10	65.91	0.00	0.0608	11.05	486.2	412.94	0.0641	543.1	9.776	20.30	11.23	1.45
	105.80	23.10	65.88	0.00	0.0608	11.05	486.1	413.01	0.0640	543.3	9.780	20.31	11.24	1.45
	106.81	23.12	65.91	0.00	0.0609	11.06	486.5	413.22	0.0641	544.1	9.794	20.33	11.26	1.45
	107.80	23.10	65.91	0.00	0.0608	11.06	486.6	413.27	0.0642	545.6	9.820	20.39	11.30	1.45
	108.80	23.10	65.91	0.00	0.0609	11.07	487.1	413.73	0.0642	546.1	9.831	20.41	11.31	1.45
	109.80	23.08	65.91	0.00	0.0609	11.06	486.8	413.40	0.0642	545.8	9.825	20.40	11.30	1.45
	110.80	23.10	65.88	0.00	0.0609	11.06	486.6	413.44	0.0641	545.0	9.810	20.38	11.28	1.45
	111.80	23.10	65.91	0.00	0.0609	11.06	486.9	413.50	0.0641	545.5	9.819	20.39	11.30	1.45
	112.80	23.10	65.91	0.00	0.0609	11.07	486.9	413.52	0.0642	546.3	9.833	20.41	11.32	1.45
	113.80	23.10	65.88	0.00	0.0608	11.07	486.9	413.74	0.0642	545.2	9.814	20.38	11.29	1.45
	114.80	23.08	65.89	0.00	0.0610	11.07	487.3	413.98	0.0644	547.2	9.850	20.45	11.34	1.45
	115.88	23.10	65.91	0.00	0.0609	11.08	487.6	414.12	0.0645	547.9	9.861	20.47	11.36	1.45
	116.80	23.12	65.91	0.00	0.0609	11.08	487.6	414.15	0.0643	547.9	9.862	20.48	11.36	1.45
	117.81	23.08	65.91	0.00	0.0610	11.09	488.1	414.55	0.0644	548.6	9.874	20.50	11.38	1.45
	118.80	23.13	65.91	0.00	0.0610	11.09	488.0	414.56	0.0644	548.4	9.872	20.50	11.38	1.45
	119.80	23.10	65.91	0.00	0.0609	11.09	487.8	414.27	0.0643	548.3	9.869	20.49	11.37	1.45
	120.88	23.10	65.91	0.00	0.0610	11.10	488.2	414.68	0.0645	549.5	9.891	20.54	11.41	1.45
	121.81	23.12	65.88	0.00	0.0610	11.09	488.0	414.68	0.0646	548.7	9.876	20.51	11.38	1.45
	122.80	23.10	65.91	0.00	0.0610	11.09	487.9	414.36	0.0644	548.9	9.880	20.51	11.39	1.45
	123.81	23.10	65.91	0.00	0.0610	11.09	488.1	414.52	0.0645	550.3	9.905	20.56	11.43	1.45
	124.88	23.10	65.91	0.00	0.0610	11.10	488.3	414.71	0.0646	550.1	9.901	20.56	11.42	1.45
	125.83	23.12	65.88	0.00	0.0610	11.09	488.2	414.80	0.0646	550.3	9.906	20.57	11.43	1.45
	126.88	23.12	65.91	0.00	0.0611	11.12	489.3	415.63	0.0647	551.5	9.926	20.61	11.46	1.45
	127.80	23.12	65.89	0.00	0.0609	11.11	488.8	415.31	0.0645	550.8	9.915	20.59	11.44	1.45
