Mar 13 2018 at 9:58:47
Frequency: 1.00Hz.
CO2
Zero:  Value:0.91  Date:May 19 2009 at 7:53:33 AM
Span:  Value:1.00  Date:May 19 2009 at 8:00:06 AM
H2O
Zero:  Value:0.77  Date:May 19 2009 at 7:54:01 AM
Span:  Value:1.01  Date:28 Jun 2004	 at 08:29:05	
Cloud and fog, low temps
	Relative Time	Temperature	Pressure	Aux Input	CO2 Absorptance	CO2 mmol/m3	CO2 mg/m3	CO2 umol/mol	H2O Absorptance	H2O mmol/m3	H2O g/m3	H2O mmol/mol	H2O(°C)	Cooler Voltage
	0.42	22.80	65.91	0.00	0.0611	11.13	489.7	415.51	0.0578	468.6	8.435	17.49	9.01	1.43
	1.44	22.80	65.88	0.00	0.0612	11.13	489.9	415.86	0.0578	470.5	8.469	17.57	9.07	1.43
	2.42	22.80	65.91	0.00	0.0611	11.13	489.7	415.52	0.0579	470.9	8.476	17.58	9.08	1.43
	3.44	22.80	65.91	0.00	0.0612	11.13	489.7	415.52	0.0580	471.9	8.493	17.62	9.11	1.43
	4.50	22.82	65.91	0.00	0.0611	11.12	489.3	415.22	0.0580	475.0	8.549	17.73	9.21	1.42
	5.44	22.82	65.93	0.00	0.0611	11.12	489.5	415.18	0.0584	476.2	8.572	17.77	9.25	1.43
	6.50	22.82	65.91	0.00	0.0611	11.14	490.0	415.78	0.0587	480.3	8.645	17.93	9.37	1.43
	7.44	22.82	65.91	0.00	0.0610	11.10	488.3	414.31	0.0583	479.9	8.638	17.92	9.36	1.43
	8.44	22.84	65.89	0.00	0.0612	11.16	490.8	416.67	0.0587	482.0	8.675	18.00	9.43	1.43
	9.44	22.82	65.91	0.00	0.0615	11.19	492.3	417.71	0.0598	492.3	8.862	18.38	9.74	1.43
	10.44	22.82	65.91	0.00	0.0611	11.12	489.3	415.18	0.0591	484.6	8.723	18.09	9.51	1.42
	11.42	22.82	65.91	0.00	0.0610	11.13	489.7	415.54	0.0597	486.8	8.762	18.17	9.57	1.42
	12.44	22.82	65.91	0.00	0.0610	11.09	487.9	413.98	0.0592	486.5	8.756	18.16	9.57	1.43
	13.42	22.82	65.88	0.00	0.0611	11.10	488.4	414.56	0.0590	485.3	8.735	18.13	9.53	1.43
	14.44	22.80	65.91	0.00	0.0610	11.10	488.3	414.30	0.0592	486.6	8.759	18.17	9.57	1.43
	15.42	22.80	65.96	0.00	0.0610	11.09	487.9	413.68	0.0595	492.7	8.868	18.38	9.75	1.43
	16.44	22.82	65.91	0.00	0.0610	11.08	487.5	413.63	0.0598	496.4	8.936	18.53	9.87	1.42
	17.50	22.82	65.91	0.00	0.0611	11.09	488.0	414.04	0.0601	492.9	8.873	18.40	9.76	1.43
	18.44	22.82	65.91	0.00	0.0610	11.08	487.5	413.63	0.0597	494.6	8.902	18.46	9.81	1.43
	19.44	22.84	65.91	0.00	0.0609	11.08	487.5	413.66	0.0598	494.6	8.902	18.47	9.81	1.43
	20.44	22.82	65.91	0.00	0.0610	11.09	487.9	413.97	0.0599	495.1	8.912	18.49	9.83	1.42
	21.44	22.82	65.91	0.00	0.0609	11.08	487.6	413.77	0.0602	497.5	8.954	18.57	9.90	1.42
	22.42	22.82	65.91	0.00	0.0609	11.07	487.2	413.38	0.0601	497.4	8.954	18.57	9.90	1.43
	23.44	22.82	65.93	0.00	0.0609	11.07	487.0	413.06	0.0604	501.4	9.024	18.71	10.01	1.42
	24.42	22.80	65.91	0.00	0.0610	11.06	486.8	413.07	0.0605	501.6	9.028	18.72	10.02	1.43
	25.44	22.79	65.91	0.00	0.0608	11.07	487.0	413.18	0.0603	499.5	8.991	18.65	9.96	1.43
	26.50	22.78	65.91	0.00	0.0609	11.05	486.3	412.59	0.0607	505.6	9.100	18.87	10.14	1.42
	27.44	22.84	65.91	0.00	0.0609	11.06	486.7	413.04	0.0604	501.6	9.030	18.73	10.02	1.43
	28.50	22.82	65.91	0.00	0.0608	11.06	486.7	412.96	0.0608	503.2	9.058	18.79	10.07	1.42
	29.44	22.80	65.91	0.00	0.0607	11.06	486.5	412.75	0.0608	503.7	9.067	18.81	10.08	1.43
	30.44	22.82	65.91	0.00	0.0608	11.02	484.8	411.36	0.0608	507.9	9.143	18.96	10.21	1.43
	31.44	22.82	65.91	0.00	0.0609	11.05	486.3	412.63	0.0607	505.7	9.102	18.88	10.14	1.43
	32.44	22.82	65.91	0.00	0.0608	11.03	485.3	411.80	0.0611	507.9	9.141	18.96	10.21	1.42
	33.42	22.82	65.91	0.00	0.0607	11.04	485.6	412.08	0.0610	507.9	9.142	18.96	10.21	1.43
	34.44	22.82	65.91	0.00	0.0606	11.03	485.1	411.66	0.0615	509.0	9.162	19.00	10.24	1.43
	35.42	22.82	65.91	0.00	0.0607	11.02	485.0	411.57	0.0615	512.7	9.229	19.14	10.35	1.43
	36.44	22.82	65.91	0.00	0.0607	11.02	484.8	411.41	0.0612	512.0	9.217	19.12	10.33	1.43
	37.42	22.82	65.91	0.00	0.0607	11.03	485.4	411.84	0.0614	511.0	9.198	19.08	10.30	1.43
	38.44	22.82	65.91	0.00	0.0606	10.99	483.6	410.38	0.0616	515.2	9.273	19.23	10.42	1.42
	39.50	22.80	65.91	0.00	0.0607	11.03	485.4	411.86	0.0616	514.0	9.253	19.19	10.39	1.43
	40.44	22.82	65.89	0.00	0.0606	11.01	484.4	411.18	0.0618	517.7	9.318	19.33	10.49	1.43
	41.44	22.82	65.91	0.00	0.0606	10.98	483.1	409.93	0.0620	519.9	9.358	19.41	10.56	1.43
	42.44	22.80	65.91	0.00	0.0605	10.98	483.2	410.00	0.0619	519.0	9.343	19.38	10.53	1.43
	43.44	22.82	65.93	0.00	0.0606	11.00	483.9	410.43	0.0617	516.7	9.301	19.28	10.47	1.43
	44.42	22.82	65.91	0.00	0.0606	10.99	483.7	410.43	0.0620	518.6	9.335	19.36	10.52	1.43
	45.44	22.80	65.91	0.00	0.0605	10.99	483.6	410.30	0.0620	519.6	9.353	19.40	10.55	1.43
	46.42	22.78	65.91	0.00	0.0605	10.97	482.6	409.47	0.0622	522.6	9.407	19.51	10.63	1.43
	47.44	22.82	65.91	0.00	0.0606	10.98	483.0	409.85	0.0621	522.1	9.398	19.49	10.62	1.43
	48.44	22.80	65.91	0.00	0.0606	10.99	483.6	410.31	0.0622	521.8	9.393	19.48	10.61	1.43
	49.44	22.82	65.93	0.00	0.0605	10.98	483.1	409.75	0.0622	522.1	9.398	19.48	10.62	1.43
	50.44	22.80	65.91	0.00	0.0605	10.99	483.6	410.32	0.0623	523.1	9.416	19.53	10.65	1.43
	51.44	22.80	65.89	0.00	0.0605	10.99	483.7	410.54	0.0625	525.0	9.451	19.61	10.70	1.43
	52.44	22.82	65.91	0.00	0.0605	10.98	483.0	409.81	0.0625	526.0	9.468	19.64	10.73	1.43
	53.44	22.80	65.91	0.00	0.0605	10.97	482.8	409.64	0.0629	527.6	9.497	19.70	10.78	1.43
	54.44	22.82	65.91	0.00	0.0604	10.97	482.5	409.41	0.0627	528.6	9.515	19.74	10.81	1.43
	55.42	22.82	65.89	0.00	0.0604	10.96	482.3	409.42	0.0628	529.2	9.526	19.77	10.82	1.43
	56.44	22.80	65.91	0.00	0.0605	10.97	482.7	409.53	0.0628	529.2	9.526	19.76	10.82	1.43
	57.42	22.82	65.90	0.00	0.0604	10.98	483.2	410.04	0.0627	528.5	9.513	19.73	10.80	1.43
	58.44	22.82	65.91	0.00	0.0605	10.97	482.8	409.63	0.0629	528.9	9.520	19.75	10.82	1.43
	59.42	22.82	65.91	0.00	0.0605	10.95	482.0	408.99	0.0629	531.3	9.563	19.84	10.88	1.43
	60.44	22.82	65.88	0.00	0.0604	10.96	482.3	409.39	0.0629	530.6	9.550	19.82	10.86	1.43
	61.50	22.82	65.91	0.00	0.0604	10.96	482.3	409.26	0.0632	533.1	9.595	19.90	10.93	1.43
	62.44	22.82	65.91	0.00	0.0605	10.96	482.2	409.19	0.0632	533.3	9.599	19.91	10.94	1.43
	63.44	22.82	65.91	0.00	0.0604	10.95	481.8	408.86	0.0632	534.8	9.627	19.97	10.98	1.43
	64.44	22.82	65.91	0.00	0.0604	10.95	481.9	408.93	0.0634	535.4	9.637	19.99	11.00	1.43
	65.44	22.80	65.86	0.00	0.0604	10.94	481.5	408.81	0.0633	535.8	9.644	20.02	11.01	1.43
	66.44	22.82	65.91	0.00	0.0604	10.94	481.2	408.35	0.0633	536.2	9.652	20.02	11.02	1.43
	67.44	22.82	65.93	0.00	0.0603	10.94	481.6	408.46	0.0634	536.2	9.652	20.01	11.02	1.43
	68.42	22.82	65.91	0.00	0.0603	10.93	481.0	408.11	0.0636	538.0	9.683	20.09	11.07	1.43
	69.44	22.82	65.91	0.00	0.0603	10.92	480.7	407.87	0.0637	542.0	9.756	20.24	11.18	1.43
	70.44	22.80	65.91	0.00	0.0603	10.94	481.3	408.33	0.0638	540.6	9.731	20.18	11.14	1.43
	71.45	22.84	65.91	0.00	0.0604	10.93	480.8	407.99	0.0637	539.9	9.719	20.16	11.13	1.43
	72.45	22.84	65.91	0.00	0.0602	10.93	480.7	407.94	0.0638	541.3	9.743	20.21	11.17	1.43
	73.45	22.82	65.91	0.00	0.0603	10.92	480.5	407.69	0.0638	541.6	9.749	20.22	11.17	1.43
	74.45	22.82	65.91	0.00	0.0602	10.92	480.4	407.61	0.0639	542.8	9.771	20.27	11.21	1.43
	75.45	22.82	65.91	0.00	0.0603	10.92	480.6	407.84	0.0639	541.8	9.752	20.23	11.18	1.43
	76.45	22.82	65.91	0.00	0.0603	10.93	480.8	407.99	0.0641	542.9	9.773	20.27	11.21	1.43
	77.45	22.82	65.91	0.00	0.0603	10.93	481.1	408.20	0.0640	543.4	9.781	20.29	11.22	1.43
	78.45	22.80	65.91	0.00	0.0601	10.90	479.6	406.96	0.0643	547.1	9.848	20.42	11.32	1.43
	79.44	22.82	65.91	0.00	0.0603	10.91	480.1	407.40	0.0642	546.6	9.838	20.41	11.31	1.43
	80.45	22.82	65.91	0.00	0.0603	10.91	480.3	407.51	0.0643	547.3	9.852	20.44	11.33	1.43
	81.44	22.82	65.91	0.00	0.0602	10.91	480.0	407.27	0.0644	547.7	9.858	20.45	11.34	1.43
	82.45	22.82	65.93	0.00	0.0602	10.90	479.5	406.72	0.0644	548.9	9.880	20.49	11.37	1.43
	83.52	22.80	65.91	0.00	0.0601	10.90	479.4	406.76	0.0645	548.9	9.880	20.49	11.37	1.43
	84.45	22.80	65.88	0.00	0.0601	10.88	478.9	406.45	0.0646	551.3	9.924	20.59	11.44	1.43
	85.45	22.82	65.91	0.00	0.0602	10.91	479.9	407.19	0.0648	551.2	9.922	20.58	11.44	1.43
	86.45	22.82	65.91	0.00	0.0600	10.88	478.7	406.22	0.0649	552.6	9.946	20.63	11.48	1.43
	87.45	22.84	65.90	0.00	0.0602	10.90	479.4	406.87	0.0648	553.5	9.963	20.67	11.50	1.43
	88.45	22.82	65.91	0.00	0.0601	10.89	479.0	406.43	0.0648	554.5	9.981	20.70	11.53	1.43
	89.45	22.82	65.91	0.00	0.0600	10.88	478.5	406.05	0.0650	555.2	9.994	20.73	11.55	1.43
	90.44	22.82	65.93	0.00	0.0601	10.87	478.3	405.70	0.0650	555.3	9.996	20.72	11.55	1.43
	91.45	22.80	65.91	0.00	0.0600	10.87	478.2	405.78	0.0652	556.4	10.015	20.77	11.58	1.43
	92.44	22.82	65.91	0.00	0.0601	10.87	478.2	405.75	0.0653	558.9	10.060	20.87	11.65	1.43
	93.45	22.82	65.91	0.00	0.0600	10.88	478.6	406.08	0.0652	557.5	10.035	20.81	11.61	1.43
	94.44	22.82	65.91	0.00	0.0600	10.86	477.7	405.32	0.0652	559.4	10.069	20.88	11.66	1.43
	95.45	22.82	65.93	0.00	0.0600	10.86	478.0	405.49	0.0652	558.5	10.053	20.85	11.64	1.43
	96.45	22.82	65.91	0.00	0.0600	10.86	477.7	405.36	0.0654	559.3	10.067	20.88	11.66	1.43
	97.45	22.82	65.91	0.00	0.0601	10.88	478.7	406.15	0.0654	559.7	10.075	20.90	11.67	1.43
	98.45	22.82	65.91	0.00	0.0600	10.87	478.3	405.86	0.0654	559.8	10.076	20.90	11.67	1.43
	99.45	22.80	65.91	0.00	0.0600	10.87	478.2	405.72	0.0655	560.6	10.091	20.93	11.69	1.43
	100.45	22.82	65.96	0.00	0.0600	10.86	477.9	405.19	0.0654	561.4	10.106	20.95	11.72	1.43
	101.44	22.84	65.91	0.00	0.0600	10.86	477.7	405.35	0.0657	563.7	10.146	21.05	11.78	1.43
	102.45	22.82	65.91	0.00	0.0599	10.86	477.9	405.47	0.0658	564.8	10.166	21.09	11.81	1.43
	103.44	22.82	65.91	0.00	0.0599	10.83	476.6	404.38	0.0660	566.6	10.199	21.15	11.86	1.43
	104.45	22.82	65.91	0.00	0.0599	10.83	476.4	404.23	0.0658	565.6	10.181	21.12	11.83	1.43
	105.44	22.80	65.91	0.00	0.0600	10.86	478.0	405.61	0.0658	565.3	10.175	21.10	11.82	1.43
	106.45	22.80	65.91	0.00	0.0599	10.85	477.3	404.96	0.0660	566.0	10.188	21.13	11.84	1.43
	107.45	22.82	65.91	0.00	0.0600	10.85	477.5	405.17	0.0659	567.0	10.206	21.17	11.87	1.43
	108.45	22.82	65.91	0.00	0.0598	10.81	475.8	403.71	0.0661	569.2	10.245	21.25	11.92	1.43
	109.45	22.82	65.91	0.00	0.0599	10.83	476.6	404.42	0.0661	568.1	10.225	21.21	11.89	1.43
	110.45	22.84	65.91	0.00	0.0598	10.83	476.5	404.34	0.0661	568.9	10.241	21.24	11.92	1.43
	111.45	22.82	65.91	0.00	0.0599	10.81	475.6	403.53	0.0661	571.3	10.283	21.33	11.98	1.43
	112.45	22.84	65.91	0.00	0.0599	10.83	476.4	404.24	0.0662	570.3	10.265	21.29	11.95	1.43
	113.45	22.82	65.89	0.00	0.0599	10.83	476.7	404.62	0.0663	570.6	10.272	21.31	11.96	1.43
	114.44	22.82	65.91	0.00	0.0599	10.82	476.1	403.97	0.0664	571.8	10.292	21.35	11.99	1.43
	115.45	22.82	65.91	0.00	0.0598	10.82	476.2	404.03	0.0663	571.7	10.290	21.34	11.99	1.43
	116.44	22.82	65.91	0.00	0.0599	10.83	476.5	404.34	0.0665	572.5	10.305	21.37	12.01	1.43
	117.45	22.82	65.89	0.00	0.0598	10.82	476.1	404.13	0.0664	573.0	10.315	21.40	12.03	1.43
	118.45	22.82	65.93	0.00	0.0599	10.82	476.1	403.82	0.0664	573.5	10.323	21.40	12.04	1.43
	119.45	22.80	65.91	0.00	0.0598	10.81	475.7	403.58	0.0666	574.7	10.345	21.46	12.07	1.43
	120.45	22.80	65.91	0.00	0.0597	10.79	474.9	402.95	0.0667	578.1	10.406	21.58	12.16	1.43
	121.44	22.84	65.91	0.00	0.0597	10.80	475.3	403.36	0.0667	576.0	10.368	21.51	12.11	1.43
	122.45	22.82	65.89	0.00	0.0597	10.81	475.6	403.74	0.0667	576.6	10.379	21.54	12.12	1.43
	123.44	22.82	65.91	0.00	0.0598	10.80	475.3	403.31	0.0667	577.1	10.388	21.55	12.13	1.43
	124.45	22.80	65.91	0.00	0.0598	10.80	475.1	403.09	0.0669	579.1	10.423	21.62	12.18	1.43
	125.44	22.82	65.91	0.00	0.0597	10.78	474.2	402.35	0.0669	580.8	10.454	21.68	12.23	1.43
	126.45	22.84	65.91	0.00	0.0597	10.79	474.9	402.96	0.0670	579.6	10.433	21.64	12.20	1.43
	127.44	22.82	65.91	0.00	0.0597	10.79	474.6	402.74	0.0671	580.4	10.448	21.67	12.22	1.43
	128.45	22.82	65.91	0.00	0.0597	10.79	474.7	402.79	0.0670	580.0	10.440	21.65	12.21	1.43
	129.45	22.82	65.91	0.00	0.0596	10.76	473.3	401.64	0.0671	581.4	10.466	21.71	12.25	1.43
	130.45	22.84	65.91	0.00	0.0597	10.78	474.1	402.33	0.0670	581.0	10.457	21.69	12.24	1.43
	131.52	22.82	65.91	0.00	0.0597	10.78	474.5	402.59	0.0671	580.9	10.457	21.69	12.23	1.43
	132.44	22.86	65.91	0.00	0.0597	10.78	474.2	402.38	0.0671	582.6	10.486	21.75	12.28	1.43
	133.44	22.82	65.91	0.00	0.0597	10.78	474.5	402.60	0.0672	581.7	10.470	21.72	12.25	1.43
	134.44	22.82	65.91	0.00	0.0596	10.79	474.8	402.87	0.0673	584.1	10.514	21.81	12.32	1.44
	135.44	22.82	65.88	0.00	0.0597	10.79	474.9	403.10	0.0671	582.4	10.483	21.75	12.27	1.44
	136.44	22.82	65.91	0.00	0.0596	10.78	474.3	402.50	0.0672	583.9	10.510	21.80	12.31	1.43
	137.44	22.84	65.91	0.00	0.0596	10.76	473.6	401.87	0.0674	585.9	10.547	21.88	12.37	1.43
	138.44	22.82	65.91	0.00	0.0597	10.77	473.9	402.11	0.0675	587.1	10.567	21.92	12.39	1.43
	139.44	22.82	65.91	0.00	0.0595	10.77	473.8	402.03	0.0675	586.9	10.564	21.91	12.39	1.43
	140.45	22.82	65.89	0.00	0.0595	10.77	473.9	402.22	0.0675	585.5	10.539	21.87	12.35	1.44
