Mar 13 2018 at 9:42:18
Frequency: 1.00Hz.
CO2
Zero:  Value:0.91  Date:May 19 2009 at 7:53:33 AM
Span:  Value:1.00  Date:May 19 2009 at 8:00:06 AM
H2O
Zero:  Value:0.77  Date:May 19 2009 at 7:54:01 AM
Span:  Value:1.01  Date:28 Jun 2004	 at 08:29:05	
In cloud roll, temperature drop 50%
	Relative Time	Temperature	Pressure	Aux Input	CO2 Absorptance	CO2 mmol/m3	CO2 mg/m3	CO2 umol/mol	H2O Absorptance	H2O mmol/m3	H2O g/m3	H2O mmol/mol	H2O(°C)	Cooler Voltage
	0.92	23.29	65.91	0.00	0.0604	10.95	481.8	409.45	0.0567	458.0	8.243	17.13	8.69	1.40
	1.92	23.27	65.89	0.00	0.0603	10.94	481.5	409.31	0.0567	459.0	8.261	17.17	8.72	1.40
	2.92	23.27	65.91	0.00	0.0604	10.94	481.5	409.20	0.0567	457.9	8.242	17.12	8.69	1.40
	3.92	23.27	65.88	0.00	0.0603	10.94	481.2	409.07	0.0568	460.0	8.280	17.21	8.76	1.40
	4.92	23.25	65.91	0.00	0.0603	10.93	481.1	408.85	0.0569	460.7	8.293	17.23	8.78	1.40
	5.92	23.27	65.91	0.00	0.0603	10.92	480.6	408.40	0.0570	461.7	8.311	17.27	8.81	1.40
	6.92	23.27	65.91	0.00	0.0603	10.93	480.8	408.61	0.0571	462.8	8.330	17.30	8.85	1.40
	7.92	23.27	65.91	0.00	0.0603	10.93	480.7	408.52	0.0571	462.8	8.330	17.30	8.85	1.40
	8.92	23.27	65.89	0.00	0.0602	10.92	480.7	408.62	0.0574	465.9	8.387	17.43	8.95	1.40
	9.92	23.27	65.91	0.00	0.0603	10.93	480.7	408.55	0.0572	464.6	8.363	17.37	8.90	1.40
	10.92	23.26	65.91	0.00	0.0603	10.92	480.4	408.20	0.0574	466.1	8.389	17.43	8.95	1.40
	11.92	23.26	65.91	0.00	0.0603	10.92	480.6	408.43	0.0574	466.8	8.403	17.45	8.97	1.40
	12.92	23.26	65.91	0.00	0.0602	10.91	480.0	407.86	0.0576	467.4	8.414	17.48	8.99	1.40
	13.92	23.27	65.91	0.00	0.0602	10.91	480.1	408.01	0.0576	469.1	8.443	17.54	9.05	1.41
	14.92	23.24	65.91	0.00	0.0602	10.92	480.3	408.12	0.0579	472.2	8.500	17.65	9.14	1.40
	15.92	23.26	65.91	0.00	0.0601	10.90	479.8	407.72	0.0579	471.2	8.482	17.62	9.11	1.40
	16.92	23.26	65.91	0.00	0.0603	10.92	480.3	408.18	0.0580	473.5	8.522	17.70	9.18	1.40
	17.92	23.27	65.89	0.00	0.0602	10.93	481.1	408.99	0.0581	473.2	8.517	17.70	9.18	1.40
	18.92	23.27	65.91	0.00	0.0601	10.92	480.3	408.17	0.0581	475.1	8.551	17.76	9.23	1.40
	19.92	23.24	65.91	0.00	0.0603	10.91	480.1	407.97	0.0582	477.7	8.598	17.86	9.31	1.41
	20.92	23.22	65.89	0.00	0.0602	10.92	480.3	408.20	0.0582	477.2	8.590	17.85	9.30	1.40
	21.92	23.26	65.91	0.00	0.0602	10.91	480.2	408.10	0.0586	480.0	8.641	17.95	9.39	1.40
	23.00	23.26	65.93	0.00	0.0603	10.91	480.1	407.86	0.0587	479.2	8.626	17.91	9.36	1.40
	23.92	23.26	65.89	0.00	0.0602	10.91	480.0	408.00	0.0587	480.8	8.654	17.98	9.41	1.40
	24.92	23.26	65.91	0.00	0.0602	10.92	480.3	408.14	0.0587	482.0	8.676	18.02	9.45	1.40
	25.92	23.26	65.91	0.00	0.0602	10.91	479.9	407.80	0.0587	480.7	8.653	17.97	9.41	1.41
	26.92	23.26	65.89	0.00	0.0602	10.91	480.1	408.07	0.0591	486.3	8.754	18.19	9.58	1.40
	27.92	23.26	65.91	0.00	0.0602	10.90	479.6	407.56	0.0590	484.1	8.715	18.10	9.52	1.40
	28.92	23.24	65.91	0.00	0.0602	10.91	480.2	408.05	0.0591	486.3	8.753	18.18	9.58	1.40
	29.92	23.26	65.91	0.00	0.0602	10.91	479.9	407.80	0.0592	485.2	8.733	18.14	9.55	1.40
	30.92	23.26	65.89	0.00	0.0602	10.91	480.2	408.20	0.0593	488.2	8.787	18.26	9.64	1.40
	31.92	23.26	65.89	0.00	0.0602	10.91	479.8	407.89	0.0591	487.9	8.783	18.25	9.63	1.41
	32.92	23.26	65.91	0.00	0.0602	10.91	479.8	407.75	0.0593	487.7	8.779	18.24	9.63	1.40
	33.92	23.22	65.88	0.00	0.0602	10.90	479.4	407.48	0.0595	489.0	8.802	18.29	9.66	1.40
	34.92	23.26	65.91	0.00	0.0602	10.90	479.7	407.63	0.0596	491.1	8.840	18.36	9.73	1.40
	35.92	23.26	65.91	0.00	0.0602	10.90	479.4	407.41	0.0597	492.8	8.870	18.43	9.78	1.40
	36.92	23.24	65.91	0.00	0.0601	10.91	479.8	407.73	0.0597	492.7	8.869	18.42	9.78	1.41
	37.92	23.24	65.91	0.00	0.0602	10.90	479.7	407.61	0.0596	492.4	8.863	18.41	9.77	1.41
	38.92	23.24	65.88	0.00	0.0602	10.90	479.6	407.68	0.0598	495.2	8.913	18.52	9.85	1.40
	39.92	23.24	65.91	0.00	0.0602	10.89	479.3	407.31	0.0600	495.0	8.911	18.51	9.85	1.40
	40.92	23.24	65.91	0.00	0.0602	10.90	479.6	407.54	0.0599	494.3	8.897	18.48	9.82	1.40
	41.92	23.22	65.91	0.00	0.0601	10.90	479.8	407.64	0.0600	496.9	8.943	18.58	9.90	1.40
	42.92	23.26	65.88	0.00	0.0601	10.90	479.7	407.82	0.0600	497.1	8.948	18.59	9.91	1.41
	44.00	23.24	65.86	0.00	0.0601	10.91	480.2	408.32	0.0602	500.7	9.013	18.74	10.02	1.41
	44.92	23.24	65.91	0.00	0.0602	10.89	479.3	407.25	0.0603	500.3	9.005	18.70	10.00	1.40
	46.00	23.24	65.91	0.00	0.0603	10.90	479.6	407.50	0.0605	500.7	9.012	18.72	10.01	1.40
	46.92	23.24	65.86	0.00	0.0602	10.91	479.9	408.07	0.0605	501.7	9.030	18.77	10.05	1.40
	48.00	23.26	65.91	0.00	0.0602	10.92	480.4	408.22	0.0612	510.6	9.192	19.09	10.31	1.41
	48.92	23.26	65.91	0.00	0.0602	10.91	480.1	407.99	0.0607	505.1	9.092	18.89	10.15	1.41
	50.00	23.24	65.91	0.00	0.0602	10.89	479.0	407.04	0.0606	505.0	9.090	18.88	10.14	1.41
	50.92	23.26	65.86	0.00	0.0601	10.89	479.0	407.30	0.0605	503.1	9.056	18.82	10.09	1.41
	51.92	23.24	65.88	0.00	0.0601	10.89	479.3	407.47	0.0607	505.1	9.092	18.89	10.15	1.40
	52.92	23.22	65.91	0.00	0.0602	10.90	479.8	407.68	0.0608	504.6	9.084	18.87	10.13	1.40
	53.92	23.22	65.89	0.00	0.0601	10.90	479.5	407.55	0.0609	505.6	9.100	18.91	10.16	1.41
	54.92	23.24	65.90	0.00	0.0602	10.90	479.5	407.46	0.0608	504.9	9.089	18.88	10.14	1.41
	55.92	23.20	65.86	0.00	0.0602	10.90	479.5	407.75	0.0611	507.6	9.138	18.99	10.22	1.41
	56.92	23.22	65.91	0.00	0.0601	10.89	479.2	407.20	0.0612	508.0	9.144	18.99	10.23	1.41
	57.92	23.22	65.88	0.00	0.0602	10.90	479.5	407.60	0.0613	508.4	9.151	19.01	10.24	1.41
	58.92	23.24	65.91	0.00	0.0602	10.89	479.4	407.34	0.0612	509.2	9.165	19.04	10.27	1.41
	59.92	23.24	65.91	0.00	0.0602	10.90	479.6	407.51	0.0613	511.9	9.214	19.14	10.35	1.41
	60.92	23.22	65.89	0.00	0.0601	10.89	479.0	407.15	0.0614	512.0	9.215	19.15	10.35	1.41
	61.92	23.22	65.89	0.00	0.0601	10.90	479.4	407.51	0.0612	512.1	9.218	19.15	10.35	1.41
	62.92	23.20	65.91	0.00	0.0601	10.90	479.6	407.45	0.0614	514.0	9.252	19.21	10.41	1.41
	63.92	23.22	65.91	0.00	0.0601	10.88	478.6	406.62	0.0615	512.4	9.222	19.15	10.36	1.41
	64.91	23.22	65.96	0.00	0.0601	10.89	479.3	406.97	0.0615	513.4	9.241	19.18	10.39	1.41
	65.92	23.20	65.91	0.00	0.0601	10.90	479.5	407.41	0.0615	515.1	9.273	19.26	10.44	1.41
	66.91	23.22	65.91	0.00	0.0602	10.90	479.4	407.36	0.0617	515.0	9.270	19.25	10.44	1.41
	67.92	23.22	65.91	0.00	0.0602	10.89	479.0	407.02	0.0618	516.8	9.303	19.32	10.49	1.41
	68.92	23.22	65.89	0.00	0.0602	10.89	479.3	407.41	0.0619	517.9	9.323	19.37	10.52	1.41
	69.94	23.20	65.91	0.00	0.0601	10.89	479.4	407.27	0.0618	518.3	9.329	19.37	10.53	1.41
	70.92	23.22	65.89	0.00	0.0601	10.89	479.2	407.34	0.0619	518.1	9.327	19.38	10.53	1.41
	71.94	23.22	65.91	0.00	0.0601	10.89	479.1	407.07	0.0619	518.3	9.330	19.38	10.53	1.41
	72.94	23.22	65.91	0.00	0.0602	10.90	479.6	407.52	0.0621	520.9	9.376	19.47	10.61	1.41
	73.94	23.22	65.93	0.00	0.0602	10.90	479.7	407.42	0.0621	522.6	9.407	19.53	10.66	1.41
	75.00	23.22	65.91	0.00	0.0602	10.90	479.7	407.62	0.0622	522.3	9.401	19.53	10.65	1.41
	75.94	23.20	65.91	0.00	0.0601	10.90	479.7	407.57	0.0622	522.8	9.411	19.55	10.66	1.41
	76.94	23.22	65.91	0.00	0.0602	10.90	479.6	407.47	0.0622	521.7	9.391	19.50	10.63	1.41
	77.94	23.20	65.91	0.00	0.0602	10.90	479.4	407.31	0.0623	522.6	9.406	19.54	10.65	1.41
	78.94	23.20	65.91	0.00	0.0602	10.90	479.4	407.33	0.0625	525.3	9.456	19.64	10.73	1.41
	79.94	23.18	65.91	0.00	0.0602	10.90	479.8	407.60	0.0624	524.3	9.437	19.60	10.70	1.41
	80.94	23.18	65.93	0.00	0.0601	10.90	479.5	407.23	0.0624	524.3	9.438	19.59	10.70	1.41
	81.94	23.22	65.91	0.00	0.0602	10.90	479.6	407.46	0.0625	525.2	9.453	19.63	10.73	1.41
	82.94	23.20	65.91	0.00	0.0602	10.90	479.4	407.35	0.0627	526.6	9.478	19.69	10.77	1.41
	83.92	23.20	65.91	0.00	0.0602	10.90	479.6	407.46	0.0626	526.3	9.473	19.67	10.76	1.41
	84.94	23.20	65.86	0.00	0.0601	10.90	479.7	407.83	0.0626	527.0	9.487	19.72	10.78	1.41
	85.92	23.22	65.89	0.00	0.0601	10.90	479.5	407.59	0.0627	527.5	9.494	19.73	10.80	1.41
	86.94	23.22	65.91	0.00	0.0601	10.90	479.6	407.47	0.0626	527.2	9.489	19.71	10.79	1.41
	87.92	23.20	65.89	0.00	0.0601	10.89	479.3	407.38	0.0628	528.3	9.510	19.76	10.82	1.41
	88.94	23.20	65.91	0.00	0.0601	10.90	479.4	407.35	0.0628	529.2	9.525	19.78	10.84	1.41
	89.92	23.20	65.88	0.00	0.0601	10.90	479.5	407.54	0.0628	529.6	9.534	19.81	10.86	1.41
	90.94	23.20	65.88	0.00	0.0601	10.91	479.9	407.86	0.0629	531.0	9.557	19.86	10.89	1.41
	91.92	23.19	65.91	0.00	0.0602	10.90	479.4	407.32	0.0630	531.3	9.564	19.86	10.90	1.41
	92.94	23.19	65.91	0.00	0.0602	10.89	479.2	407.08	0.0630	530.8	9.555	19.84	10.89	1.41
	93.92	23.17	65.89	0.00	0.0602	10.89	479.2	407.22	0.0631	531.8	9.572	19.88	10.92	1.41
	94.94	23.19	65.88	0.00	0.0601	10.90	479.4	407.43	0.0631	532.8	9.591	19.93	10.95	1.41
	95.92	23.20	65.89	0.00	0.0601	10.89	479.3	407.40	0.0631	532.7	9.589	19.92	10.94	1.41
	96.94	23.20	65.91	0.00	0.0601	10.90	479.5	407.35	0.0632	533.8	9.609	19.96	10.97	1.41
	97.92	23.19	65.88	0.00	0.0601	10.89	479.2	407.30	0.0632	533.9	9.611	19.97	10.98	1.41
	98.94	23.17	65.88	0.00	0.0601	10.89	479.3	407.33	0.0633	534.4	9.620	19.98	10.99	1.41
	100.00	23.20	65.89	0.00	0.0601	10.89	479.2	407.31	0.0632	534.3	9.617	19.98	10.99	1.41
	100.94	23.19	65.89	0.00	0.0601	10.89	479.2	407.27	0.0633	534.7	9.624	19.99	11.00	1.41
	101.94	23.19	65.91	0.00	0.0601	10.89	479.1	407.00	0.0634	536.0	9.648	20.04	11.03	1.41
	102.94	23.19	65.91	0.00	0.0601	10.88	478.8	406.75	0.0635	536.1	9.650	20.04	11.04	1.41
	103.94	23.19	65.89	0.00	0.0601	10.88	478.9	407.00	0.0635	537.1	9.667	20.08	11.07	1.41
	104.94	23.19	65.91	0.00	0.0601	10.89	479.0	406.96	0.0636	537.6	9.677	20.10	11.08	1.41
	105.94	23.17	65.91	0.00	0.0601	10.89	479.0	406.94	0.0635	537.7	9.678	20.10	11.08	1.41
	106.92	23.17	65.91	0.00	0.0601	10.89	479.2	407.10	0.0635	538.3	9.689	20.12	11.10	1.41
	107.94	23.19	65.91	0.00	0.0601	10.88	478.9	406.86	0.0635	539.0	9.702	20.15	11.12	1.41
	108.92	23.17	65.91	0.00	0.0601	10.89	479.1	406.98	0.0637	539.3	9.708	20.16	11.13	1.41
	109.94	23.17	65.88	0.00	0.0601	10.88	478.8	406.95	0.0637	539.5	9.710	20.17	11.13	1.41
	110.92	23.19	65.91	0.00	0.0601	10.88	478.6	406.58	0.0638	539.4	9.710	20.17	11.13	1.41
	111.94	23.17	65.91	0.00	0.0601	10.88	478.7	406.71	0.0637	539.9	9.719	20.18	11.14	1.41
	112.92	23.17	65.91	0.00	0.0600	10.88	478.5	406.51	0.0638	541.5	9.747	20.24	11.19	1.41
	113.94	23.19	65.91	0.00	0.0601	10.88	478.7	406.70	0.0638	541.1	9.740	20.23	11.18	1.41
	114.92	23.19	65.91	0.00	0.0601	10.88	478.6	406.59	0.0639	542.0	9.755	20.26	11.20	1.41
	115.94	23.15	65.93	0.00	0.0600	10.87	478.2	406.11	0.0639	542.6	9.767	20.27	11.22	1.41
	116.92	23.17	65.91	0.00	0.0600	10.88	478.6	406.58	0.0640	543.2	9.777	20.30	11.23	1.41
	117.94	23.13	65.93	0.00	0.0600	10.87	478.1	405.93	0.0640	543.7	9.787	20.31	11.25	1.41
	118.92	23.13	65.91	0.00	0.0600	10.87	478.2	406.17	0.0640	544.0	9.792	20.33	11.26	1.41
	119.94	23.15	65.88	0.00	0.0600	10.87	478.5	406.63	0.0641	544.5	9.801	20.36	11.27	1.41
	120.92	23.15	65.89	0.00	0.0601	10.87	478.2	406.38	0.0641	544.8	9.807	20.37	11.28	1.41
	121.94	23.15	65.91	0.00	0.0600	10.86	478.0	406.06	0.0641	544.3	9.798	20.34	11.27	1.41
	122.92	23.17	65.91	0.00	0.0601	10.87	478.4	406.42	0.0643	545.8	9.824	20.40	11.31	1.41
	123.94	23.17	65.91	0.00	0.0601	10.87	478.3	406.34	0.0642	545.7	9.822	20.40	11.30	1.41
