Mar 14 2018 at 8:42:48
Frequency: 1.00Hz.
CO2
Zero:  Value:0.91  Date:May 19 2009 at 7:53:33 AM
Span:  Value:1.00  Date:May 19 2009 at 8:00:06 AM
H2O
Zero:  Value:0.77  Date:May 19 2009 at 7:54:01 AM
Span:  Value:1.01  Date:28 Jun 2004	 at 08:29:05	
Redoing  plots from rainy day
	Relative Time	Temperature	Pressure	Aux Input	CO2 Absorptance	CO2 mmol/m3	CO2 mg/m3	CO2 umol/mol	H2O Absorptance	H2O mmol/m3	H2O g/m3	H2O mmol/mol	H2O(°C)	Cooler Voltage
	0.39	22.03	65.99	0.00	0.0594	10.70	471.0	398.08	0.0602	498.9	8.981	18.56	9.90	1.42
	1.38	22.03	65.99	0.00	0.0594	10.71	471.3	398.38	0.0601	497.9	8.961	18.52	9.87	1.43
	2.39	22.03	65.96	0.00	0.0595	10.74	472.6	399.64	0.0589	482.7	8.688	17.96	9.41	1.42
	3.38	22.05	65.99	0.00	0.0594	10.70	471.0	398.13	0.0603	499.1	8.984	18.56	9.91	1.42
	4.39	22.03	65.96	0.00	0.0593	10.70	470.6	397.93	0.0604	501.8	9.033	18.67	9.99	1.42
	5.38	22.05	65.99	0.00	0.0593	10.69	470.5	397.69	0.0605	500.5	9.009	18.61	9.95	1.43
	6.39	22.03	65.99	0.00	0.0593	10.69	470.5	397.69	0.0605	498.1	8.965	18.52	9.88	1.43
	7.38	22.05	65.99	0.00	0.0592	10.67	469.7	397.00	0.0609	503.8	9.069	18.74	10.05	1.43
	8.39	22.05	65.99	0.00	0.0591	10.65	468.5	396.01	0.0618	522.7	9.409	19.44	10.60	1.42
	9.38	22.05	65.99	0.00	0.0592	10.67	469.5	396.89	0.0612	505.3	9.096	18.80	10.09	1.42
	10.38	22.03	65.96	0.00	0.0591	10.66	469.2	396.71	0.0618	510.9	9.197	19.01	10.26	1.42
	11.38	22.05	65.99	0.00	0.0589	10.61	466.7	394.51	0.0638	541.8	9.752	20.15	11.14	1.43
	12.38	22.03	65.96	0.00	0.0589	10.63	467.7	395.46	0.0628	531.9	9.574	19.79	10.86	1.43
	13.38	22.03	65.99	0.00	0.0589	10.61	467.0	394.74	0.0637	535.6	9.642	19.92	10.97	1.43
	14.38	22.06	65.96	0.00	0.0590	10.61	467.0	394.97	0.0635	536.0	9.648	19.95	10.98	1.42
	15.45	22.08	66.01	0.00	0.0590	10.60	466.3	394.10	0.0633	549.3	9.887	20.43	11.35	1.43
	16.38	22.04	65.96	0.00	0.0588	10.60	466.4	394.39	0.0643	544.0	9.792	20.24	11.20	1.43
	17.39	22.06	65.99	0.00	0.0589	10.59	465.9	393.82	0.0641	544.8	9.807	20.27	11.22	1.43
	18.38	22.05	65.99	0.00	0.0588	10.60	466.4	394.23	0.0646	538.6	9.695	20.03	11.05	1.43
	19.39	22.08	65.99	0.00	0.0589	10.58	465.4	393.48	0.0649	553.3	9.960	20.58	11.46	1.43
	20.38	22.08	65.99	0.00	0.0587	10.57	465.0	393.12	0.0655	560.4	10.088	20.85	11.65	1.43
	21.39	22.08	66.01	0.00	0.0586	10.55	464.1	392.25	0.0664	565.4	10.176	21.02	11.78	1.43
	22.38	22.06	65.99	0.00	0.0587	10.55	464.2	392.44	0.0662	558.9	10.061	20.79	11.61	1.43
	23.39	22.08	66.01	0.00	0.0585	10.49	461.7	390.14	0.0684	598.2	10.767	22.24	12.64	1.43
	24.38	22.08	65.94	0.00	0.0587	10.57	464.9	393.28	0.0653	558.5	10.053	20.79	11.60	1.43
	25.39	22.08	65.99	0.00	0.0587	10.53	463.5	391.82	0.0666	574.7	10.345	21.38	12.03	1.43
	26.38	22.08	65.96	0.00	0.0586	10.52	462.9	391.51	0.0667	577.6	10.397	21.49	12.11	1.43
	27.39	22.04	65.94	0.00	0.0586	10.54	463.6	392.16	0.0661	574.5	10.340	21.38	12.02	1.43
	28.38	22.08	65.99	0.00	0.0586	10.52	462.9	391.34	0.0673	583.2	10.497	21.69	12.26	1.43
	29.38	22.10	65.99	0.00	0.0585	10.51	462.4	390.95	0.0677	588.5	10.594	21.89	12.40	1.43
	30.38	22.10	65.96	0.00	0.0585	10.51	462.6	391.24	0.0676	585.8	10.545	21.80	12.33	1.43
	31.38	22.10	65.96	0.00	0.0585	10.50	461.8	390.58	0.0683	595.1	10.711	22.14	12.56	1.43
	32.45	22.08	65.99	0.00	0.0584	10.49	461.6	390.25	0.0685	595.8	10.724	22.16	12.58	1.43
	33.38	22.10	65.99	0.00	0.0585	10.51	462.6	391.10	0.0671	586.5	10.557	21.82	12.34	1.43
	34.45	22.10	65.99	0.00	0.0584	10.50	462.0	390.63	0.0680	591.6	10.648	22.01	12.47	1.43
	35.38	22.08	65.99	0.00	0.0584	10.49	461.7	390.35	0.0682	595.7	10.723	22.16	12.58	1.43
	36.39	22.10	65.96	0.00	0.0583	10.47	460.5	389.45	0.0691	606.4	10.915	22.56	12.85	1.43
	37.38	22.10	65.99	0.00	0.0583	10.47	460.6	389.39	0.0692	606.9	10.924	22.58	12.86	1.43
	38.39	22.12	65.99	0.00	0.0583	10.47	460.5	389.38	0.0693	608.9	10.960	22.65	12.91	1.43
	39.38	22.12	65.99	0.00	0.0582	10.45	459.8	388.74	0.0699	615.8	11.085	22.91	13.09	1.43
	40.39	22.12	65.99	0.00	0.0582	10.44	459.4	388.41	0.0698	616.1	11.091	22.92	13.10	1.43
	41.38	22.10	65.99	0.00	0.0581	10.44	459.2	388.27	0.0704	621.1	11.180	23.10	13.22	1.43
	42.39	22.13	65.96	0.00	0.0582	10.44	459.4	388.54	0.0705	620.6	11.170	23.09	13.21	1.43
	43.38	22.13	65.99	0.00	0.0581	10.41	458.2	387.46	0.0713	632.1	11.378	23.52	13.49	1.43
	44.39	22.11	65.99	0.00	0.0581	10.40	457.8	387.08	0.0714	636.3	11.453	23.67	13.59	1.43
	45.38	22.11	65.99	0.00	0.0580	10.40	457.6	386.88	0.0715	634.5	11.420	23.60	13.54	1.43
	46.39	22.13	65.99	0.00	0.0581	10.40	457.6	386.89	0.0716	636.1	11.450	23.67	13.59	1.43
	47.38	22.13	65.96	0.00	0.0580	10.41	457.9	387.32	0.0714	634.4	11.419	23.61	13.54	1.43
	48.38	22.13	65.99	0.00	0.0579	10.39	457.1	386.47	0.0716	639.2	11.506	23.78	13.66	1.43
	49.38	22.13	65.99	0.00	0.0579	10.39	457.2	386.60	0.0721	638.1	11.485	23.74	13.63	1.43
	50.38	22.11	65.99	0.00	0.0579	10.37	456.5	385.93	0.0718	642.6	11.567	23.91	13.74	1.43
	51.45	22.15	65.99	0.00	0.0579	10.35	455.5	385.18	0.0726	654.8	11.787	24.36	14.03	1.43
	52.38	22.15	65.98	0.00	0.0579	10.38	456.7	386.23	0.0722	647.4	11.653	24.09	13.86	1.43
	53.39	22.15	65.99	0.00	0.0579	10.36	456.0	385.57	0.0724	648.6	11.675	24.13	13.89	1.43
	54.38	22.18	65.96	0.00	0.0578	10.34	455.0	384.91	0.0728	656.5	11.818	24.44	14.07	1.43
	55.39	22.15	65.99	0.00	0.0577	10.35	455.5	385.15	0.0730	650.7	11.713	24.21	13.94	1.43
	56.38	22.17	65.99	0.00	0.0577	10.33	454.5	384.34	0.0731	655.8	11.804	24.40	14.06	1.43
	57.39	22.17	65.99	0.00	0.0578	10.34	454.9	384.66	0.0724	650.8	11.715	24.22	13.94	1.43
	58.38	22.17	65.99	0.00	0.0576	10.30	453.1	383.18	0.0737	663.2	11.938	24.68	14.23	1.43
	59.39	22.17	65.99	0.00	0.0576	10.31	453.6	383.61	0.0734	661.0	11.898	24.59	14.18	1.44
	60.38	22.15	65.99	0.00	0.0576	10.29	452.7	382.84	0.0732	659.7	11.874	24.54	14.15	1.44
	61.39	22.17	66.01	0.00	0.0575	10.29	452.6	382.55	0.0731	661.9	11.915	24.62	14.20	1.44
	62.38	22.17	65.99	0.00	0.0575	10.27	452.1	382.29	0.0731	659.9	11.878	24.55	14.15	1.44
	63.39	22.15	65.99	0.00	0.0574	10.25	451.2	381.53	0.0735	664.8	11.966	24.73	14.27	1.44
	64.38	22.17	65.96	0.00	0.0574	10.25	451.0	381.56	0.0736	662.9	11.931	24.67	14.22	1.44
	65.39	22.18	65.93	0.00	0.0573	10.22	449.9	380.77	0.0738	668.6	12.035	24.90	14.36	1.44
	66.38	22.16	65.99	0.00	0.0573	10.23	450.3	380.80	0.0733	661.7	11.910	24.62	14.19	1.44
	67.38	22.17	65.99	0.00	0.0572	10.22	449.7	380.30	0.0737	664.8	11.966	24.74	14.27	1.44
	68.45	22.20	65.96	0.00	0.0572	10.22	449.6	380.36	0.0733	659.4	11.870	24.55	14.14	1.44
	69.38	22.20	65.96	0.00	0.0571	10.18	448.0	378.99	0.0735	661.4	11.906	24.62	14.19	1.44
	70.45	22.20	65.99	0.00	0.0569	10.13	445.7	376.96	0.0746	677.2	12.189	25.20	14.55	1.44
	71.38	22.20	65.99	0.00	0.0567	10.11	444.9	376.27	0.0742	672.8	12.111	25.04	14.45	1.44
	72.39	22.20	65.99	0.00	0.0566	10.07	443.2	374.86	0.0744	673.7	12.126	25.07	14.47	1.44
	73.38	22.20	65.99	0.00	0.0563	10.03	441.1	373.10	0.0744	671.4	12.086	24.99	14.42	1.44
	74.39	22.20	65.99	0.00	0.0562	10.01	440.3	372.34	0.0739	666.7	12.001	24.81	14.31	1.44
	75.38	22.18	65.99	0.00	0.0560	9.95	437.7	370.20	0.0737	666.9	12.005	24.82	14.32	1.44
	76.39	22.20	65.99	0.00	0.0558	9.92	436.4	369.05	0.0741	667.3	12.012	24.83	14.33	1.44
	77.38	22.20	65.99	0.00	0.0555	9.84	432.9	366.12	0.0740	670.2	12.063	24.94	14.39	1.44
	78.39	22.20	65.96	0.00	0.0552	9.79	430.6	364.36	0.0741	672.9	12.113	25.05	14.46	1.44
	79.38	22.22	65.99	0.00	0.0550	9.72	427.8	361.84	0.0744	675.5	12.160	25.14	14.52	1.44
	80.39	22.22	65.99	0.00	0.0547	9.68	425.7	360.06	0.0742	670.5	12.069	24.95	14.40	1.44
	81.38	22.22	65.96	0.00	0.0542	9.56	420.7	355.95	0.0745	677.0	12.185	25.20	14.55	1.44
	82.39	22.22	65.99	0.00	0.0540	9.50	417.9	353.45	0.0740	673.9	12.130	25.08	14.48	1.44
	83.38	22.24	65.99	0.00	0.0536	9.40	413.4	349.69	0.0747	680.2	12.244	25.32	14.62	1.44
	84.39	22.22	65.96	0.00	0.0531	9.30	409.2	346.23	0.0746	678.0	12.205	25.24	14.57	1.44
	85.38	22.25	65.99	0.00	0.0526	9.20	405.0	342.58	0.0741	670.6	12.071	24.96	14.41	1.44
	86.39	22.22	65.99	0.00	0.0520	9.08	399.6	337.97	0.0749	679.0	12.222	25.27	14.60	1.44
	87.38	22.22	65.99	0.00	0.0515	8.97	394.8	333.91	0.0743	675.1	12.152	25.13	14.51	1.44
