Mar 14 2018 at 8:46:41
Frequency: 1.00Hz.
CO2
Zero:  Value:0.91  Date:May 19 2009 at 7:53:33 AM
Span:  Value:1.00  Date:May 19 2009 at 8:00:06 AM
H2O
Zero:  Value:0.77  Date:May 19 2009 at 7:54:01 AM
Span:  Value:1.01  Date:28 Jun 2004	 at 08:29:05	
Redoing  plots from rainy day
	Relative Time	Temperature	Pressure	Aux Input	CO2 Absorptance	CO2 mmol/m3	CO2 mg/m3	CO2 umol/mol	H2O Absorptance	H2O mmol/m3	H2O g/m3	H2O mmol/mol	H2O(°C)	Cooler Voltage
	0.81	22.61	65.99	0.00	0.0599	10.82	476.1	403.25	0.0600	495.4	8.918	18.46	9.83	1.44
	1.80	22.61	65.99	0.00	0.0599	10.83	476.4	403.45	0.0601	497.4	8.954	18.54	9.89	1.44
	2.81	22.63	66.01	0.00	0.0599	10.83	476.6	403.51	0.0603	501.2	9.022	18.67	10.00	1.44
	3.80	22.61	65.96	0.00	0.0599	10.83	476.4	403.64	0.0604	500.2	9.003	18.65	9.97	1.44
	4.81	22.61	65.99	0.00	0.0599	10.83	476.5	403.60	0.0605	502.5	9.045	18.73	10.04	1.44
	5.81	22.63	65.96	0.00	0.0598	10.83	476.6	403.86	0.0606	504.4	9.080	18.81	10.10	1.44
	6.80	22.63	65.99	0.00	0.0599	10.83	476.7	403.72	0.0606	503.0	9.055	18.75	10.05	1.44
	7.81	22.63	65.99	0.00	0.0599	10.83	476.6	403.69	0.0609	506.3	9.113	18.87	10.15	1.44
	8.80	22.63	65.96	0.00	0.0599	10.83	476.7	403.94	0.0610	507.2	9.129	18.91	10.18	1.44
	9.81	22.61	65.93	0.00	0.0599	10.83	476.7	404.07	0.0611	508.7	9.157	18.97	10.22	1.44
	10.80	22.61	65.99	0.00	0.0598	10.83	476.7	403.74	0.0611	508.5	9.153	18.95	10.21	1.44
	11.81	22.61	65.99	0.00	0.0599	10.84	476.9	403.90	0.0612	509.7	9.174	18.99	10.25	1.44
	12.80	22.63	65.99	0.00	0.0600	10.84	477.0	404.01	0.0615	512.5	9.226	19.10	10.33	1.44
	13.81	22.63	65.99	0.00	0.0600	10.84	477.1	404.09	0.0616	514.0	9.251	19.15	10.38	1.44
	14.80	22.63	65.96	0.00	0.0599	10.85	477.2	404.35	0.0616	515.2	9.274	19.21	10.41	1.44
	15.81	22.67	65.99	0.00	0.0600	10.85	477.2	404.22	0.0616	514.5	9.260	19.17	10.39	1.44
	16.80	22.65	65.96	0.00	0.0599	10.84	477.0	404.19	0.0616	514.4	9.260	19.18	10.39	1.44
	17.81	22.61	65.96	0.00	0.0599	10.84	477.1	404.19	0.0615	514.5	9.261	19.18	10.39	1.44
	18.80	22.67	65.96	0.00	0.0600	10.85	477.3	404.50	0.0619	516.7	9.301	19.27	10.46	1.44
	19.81	22.65	65.99	0.00	0.0599	10.85	477.4	404.38	0.0619	518.0	9.323	19.30	10.49	1.44
	20.80	22.65	66.01	0.00	0.0600	10.87	478.1	404.83	0.0621	521.1	9.379	19.41	10.58	1.44
	21.81	22.67	65.99	0.00	0.0600	10.86	477.7	404.62	0.0621	520.7	9.373	19.41	10.57	1.44
	22.88	22.65	65.99	0.00	0.0600	10.85	477.4	404.38	0.0621	520.1	9.362	19.39	10.56	1.44
	23.81	22.65	65.99	0.00	0.0601	10.86	477.9	404.78	0.0624	523.0	9.415	19.49	10.64	1.44
	24.81	22.67	66.01	0.00	0.0600	10.86	477.6	404.44	0.0624	523.0	9.415	19.49	10.64	1.44
	25.80	22.65	65.98	0.00	0.0600	10.86	478.0	404.91	0.0625	524.8	9.446	19.56	10.69	1.44
	26.81	22.65	65.99	0.00	0.0600	10.86	478.0	404.92	0.0625	525.3	9.455	19.58	10.70	1.44
	27.80	22.67	65.99	0.00	0.0600	10.86	478.1	404.95	0.0625	525.9	9.466	19.60	10.72	1.44
	28.81	22.67	65.99	0.00	0.0600	10.86	478.0	404.94	0.0625	525.6	9.461	19.59	10.71	1.44
	29.80	22.67	65.99	0.00	0.0600	10.87	478.1	405.03	0.0626	527.3	9.491	19.65	10.76	1.44
	30.81	22.65	65.96	0.00	0.0601	10.87	478.3	405.27	0.0629	528.0	9.505	19.69	10.78	1.44
	31.80	22.67	65.99	0.00	0.0601	10.87	478.4	405.24	0.0628	528.5	9.512	19.70	10.80	1.44
	32.81	22.67	65.99	0.00	0.0600	10.87	478.3	405.15	0.0627	528.5	9.513	19.70	10.80	1.44
	33.80	22.65	65.99	0.00	0.0601	10.87	478.5	405.28	0.0629	529.6	9.532	19.74	10.83	1.44
	34.81	22.70	65.99	0.00	0.0601	10.89	479.1	405.91	0.0632	534.6	9.623	19.93	10.97	1.44
	35.80	22.68	65.96	0.00	0.0602	10.89	479.1	406.02	0.0633	535.1	9.632	19.95	10.98	1.44
	36.81	22.68	65.99	0.00	0.0602	10.89	479.2	405.94	0.0634	535.5	9.638	19.96	10.99	1.44
	37.80	22.68	65.96	0.00	0.0601	10.88	478.9	405.88	0.0632	533.9	9.610	19.91	10.95	1.44
	38.81	22.68	65.96	0.00	0.0601	10.88	478.8	405.77	0.0633	534.1	9.614	19.91	10.96	1.44
	39.80	22.68	65.99	0.00	0.0601	10.89	479.3	406.01	0.0633	536.6	9.659	20.00	11.03	1.45
	40.81	22.68	65.99	0.00	0.0602	10.90	479.5	406.17	0.0636	538.4	9.691	20.07	11.08	1.44
	41.81	22.68	65.96	0.00	0.0601	10.89	479.3	406.16	0.0637	538.9	9.700	20.09	11.09	1.44
	42.83	22.68	65.99	250.00	0.0602	10.89	479.1	405.88	0.0636	538.3	9.690	20.07	11.08	1.44
	43.88	22.68	65.99	0.00	0.0602	10.89	479.1	405.89	0.0636	538.5	9.693	20.07	11.08	1.44
	44.80	22.68	65.99	0.00	0.0601	10.90	479.5	406.20	0.0637	539.7	9.714	20.12	11.11	1.44
	45.81	22.70	65.96	0.00	0.0601	10.90	479.5	406.36	0.0637	540.2	9.724	20.15	11.13	1.45
	46.80	22.70	65.99	0.00	0.0602	10.90	479.8	406.48	0.0640	543.3	9.780	20.25	11.22	1.44
	47.81	22.70	65.99	250.00	0.0602	10.91	479.9	406.60	0.0641	544.2	9.795	20.28	11.24	1.44
	48.80	22.70	65.99	0.00	0.0602	10.91	479.8	406.50	0.0641	543.9	9.790	20.27	11.23	1.44
	49.81	22.68	65.99	0.00	0.0602	10.91	479.9	406.56	0.0642	544.9	9.809	20.31	11.26	1.44
	50.80	22.70	65.99	0.00	0.0602	10.91	480.0	406.67	0.0642	545.0	9.810	20.32	11.26	1.44
	51.81	22.72	65.99	0.00	0.0602	10.92	480.3	406.95	0.0643	546.8	9.843	20.38	11.31	1.45
	52.80	22.70	65.99	0.00	0.0603	10.91	480.1	406.71	0.0643	546.2	9.832	20.36	11.29	1.44
	53.81	22.70	65.99	0.00	0.0603	10.91	480.0	406.66	0.0643	546.5	9.838	20.37	11.30	1.44
	54.80	22.72	65.99	0.00	0.0603	10.92	480.3	406.94	0.0645	548.1	9.865	20.43	11.35	1.44
	55.81	22.70	65.93	0.00	0.0603	10.92	480.5	407.38	0.0644	548.9	9.880	20.48	11.37	1.44
	56.80	22.72	66.01	0.00	0.0603	10.92	480.7	407.11	0.0645	550.4	9.906	20.51	11.41	1.44
	57.81	22.74	66.01	0.00	0.0603	10.92	480.6	407.02	0.0646	550.7	9.913	20.52	11.42	1.45
	58.88	22.72	65.96	0.00	0.0603	10.92	480.6	407.31	0.0647	551.0	9.918	20.55	11.43	1.44
	59.81	22.72	65.96	0.00	0.0603	10.92	480.6	407.33	0.0647	551.8	9.932	20.58	11.45	1.44
	60.88	22.70	65.96	0.00	0.0603	10.93	480.7	407.42	0.0648	552.9	9.953	20.62	11.48	1.44
	61.81	22.72	65.99	0.00	0.0603	10.92	480.5	407.12	0.0648	551.4	9.926	20.56	11.44	1.44
	62.81	22.72	65.99	0.00	0.0603	10.93	481.0	407.48	0.0649	554.5	9.981	20.67	11.52	1.44
	63.80	22.72	65.99	0.00	0.0603	10.93	481.0	407.52	0.0648	553.9	9.970	20.65	11.51	1.44
	64.81	22.68	65.96	0.00	0.0604	10.94	481.4	407.95	0.0651	556.8	10.022	20.76	11.58	1.44
	65.80	22.72	65.99	0.00	0.0603	10.93	481.1	407.57	0.0650	555.5	9.998	20.71	11.55	1.44
	66.81	22.72	65.99	0.00	0.0604	10.94	481.2	407.71	0.0652	556.2	10.011	20.73	11.57	1.44
	67.80	22.72	65.99	0.00	0.0603	10.94	481.3	407.74	0.0652	557.1	10.028	20.77	11.59	1.44
	68.81	22.72	65.94	0.00	0.0603	10.93	481.0	407.85	0.0651	556.7	10.020	20.77	11.58	1.44
	69.80	22.74	65.96	0.00	0.0603	10.94	481.5	408.09	0.0652	558.9	10.060	20.84	11.64	1.44
	70.81	22.74	65.99	0.00	0.0604	10.94	481.4	407.86	0.0653	558.5	10.053	20.82	11.63	1.44
	71.80	22.74	65.99	0.00	0.0604	10.94	481.6	408.02	0.0654	559.8	10.077	20.87	11.67	1.44
	72.81	22.72	65.96	0.00	0.0604	10.94	481.4	407.98	0.0653	558.9	10.060	20.84	11.64	1.44
	73.80	22.74	65.99	0.00	0.0604	10.95	481.6	408.08	0.0655	560.1	10.082	20.88	11.68	1.44
	74.81	22.75	65.99	0.00	0.0603	10.94	481.4	407.91	0.0653	559.6	10.073	20.86	11.66	1.44
	75.88	22.72	65.99	0.00	0.0604	10.94	481.6	408.00	0.0654	561.0	10.097	20.91	11.70	1.44
	76.81	22.74	65.99	0.00	0.0604	10.95	481.9	408.27	0.0656	562.7	10.129	20.98	11.75	1.44
	77.88	22.74	65.98	0.00	0.0604	10.95	481.9	408.31	0.0656	562.7	10.128	20.98	11.75	1.44
	78.81	22.74	66.01	0.00	0.0605	10.95	482.0	408.24	0.0657	562.8	10.130	20.97	11.75	1.44
	79.88	22.74	65.99	0.00	0.0604	10.96	482.0	408.43	0.0657	563.5	10.144	21.01	11.77	1.44
	80.81	22.74	65.99	0.00	0.0604	10.96	482.2	408.52	0.0657	563.6	10.144	21.01	11.77	1.45
	81.81	22.74	65.99	0.00	0.0604	10.96	482.0	408.41	0.0657	564.2	10.156	21.03	11.79	1.44
	82.80	22.74	65.96	0.00	0.0604	10.96	482.1	408.64	0.0658	564.6	10.162	21.06	11.80	1.44
	83.81	22.75	65.99	0.00	0.0604	10.95	481.9	408.32	0.0657	563.8	10.149	21.02	11.78	1.44
	84.80	22.75	65.99	0.00	0.0604	10.95	482.0	408.41	0.0657	563.8	10.148	21.02	11.78	1.44
	85.81	22.75	65.98	0.00	0.0605	10.97	482.5	408.83	0.0660	567.0	10.205	21.14	11.86	1.44
	86.80	22.75	65.99	0.00	0.0605	10.96	482.4	408.74	0.0659	566.8	10.203	21.13	11.86	1.44
	87.81	22.75	65.99	0.00	0.0605	10.97	482.6	408.92	0.0662	568.8	10.238	21.21	11.91	1.44
	88.80	22.75	65.97	0.00	0.0605	10.97	482.7	409.10	0.0661	568.9	10.241	21.22	11.91	1.44
	89.81	22.75	65.99	0.00	0.0605	10.97	482.7	409.03	0.0662	569.7	10.254	21.24	11.93	1.44
	90.80	22.73	65.99	0.00	0.0605	10.97	482.7	409.02	0.0662	569.1	10.244	21.22	11.92	1.44
	91.81	22.75	65.99	0.00	0.0605	10.98	483.1	409.35	0.0663	571.1	10.280	21.29	11.97	1.44
	92.88	22.75	65.96	0.00	0.0605	10.98	482.9	409.33	0.0663	571.9	10.293	21.33	11.99	1.44
	93.81	22.75	65.99	0.00	0.0606	10.99	483.4	409.56	0.0665	573.5	10.323	21.38	12.04	1.44
	94.88	22.75	65.99	0.00	0.0605	10.99	483.4	409.57	0.0665	574.0	10.332	21.40	12.05	1.44
	95.81	22.75	65.96	0.00	0.0605	10.98	483.2	409.55	0.0664	572.6	10.307	21.36	12.01	1.44
	96.88	22.75	65.96	0.00	0.0604	10.98	483.0	409.42	0.0664	572.0	10.296	21.33	12.00	1.44
	97.81	22.75	65.99	0.00	0.0606	10.99	483.5	409.72	0.0666	574.9	10.348	21.43	12.07	1.45
	98.81	22.77	65.99	0.00	0.0606	11.00	483.8	409.97	0.0666	576.0	10.368	21.48	12.10	1.44
	99.81	22.79	65.96	0.00	0.0606	10.99	483.7	410.03	0.0667	575.6	10.360	21.47	12.09	1.44
	100.81	22.77	65.99	0.00	0.0606	11.00	483.8	410.00	0.0667	576.0	10.368	21.48	12.10	1.44
	101.81	22.75	65.99	0.00	0.0607	11.00	483.8	409.93	0.0668	576.7	10.381	21.50	12.12	1.44
	102.81	22.77	65.99	0.00	0.0607	11.00	483.9	410.00	0.0668	577.1	10.388	21.52	12.13	1.45
	103.80	22.77	65.96	0.00	0.0606	11.00	484.0	410.30	0.0668	577.5	10.395	21.54	12.14	1.45
	104.81	22.77	65.93	0.00	0.0606	11.00	484.2	410.62	0.0669	578.6	10.415	21.59	12.17	1.44
	105.80	22.77	65.99	0.00	0.0606	11.00	484.2	410.26	0.0670	579.3	10.427	21.60	12.19	1.44
	106.81	22.79	65.99	0.00	0.0606	11.01	484.3	410.40	0.0670	579.5	10.431	21.61	12.19	1.44
	107.80	22.77	65.99	0.00	0.0607	11.00	484.1	410.22	0.0670	579.0	10.421	21.59	12.18	1.44
	108.81	22.77	65.96	0.00	0.0607	11.01	484.4	410.60	0.0669	579.2	10.426	21.61	12.19	1.45
	109.88	22.77	65.96	0.00	0.0607	11.02	484.8	411.01	0.0670	580.1	10.442	21.64	12.21	1.45
	110.81	22.77	65.99	0.00	0.0607	11.01	484.4	410.48	0.0670	579.7	10.435	21.61	12.20	1.44
	111.88	22.77	65.99	0.00	0.0606	11.01	484.4	410.48	0.0670	580.5	10.449	21.64	12.22	1.44
	112.81	22.75	65.93	0.00	0.0607	11.02	484.8	411.07	0.0672	581.7	10.470	21.70	12.25	1.44
	113.88	22.77	65.96	0.00	0.0607	11.02	484.8	411.01	0.0672	582.1	10.477	21.71	12.26	1.44
	114.81	22.77	65.99	0.00	0.0607	11.01	484.6	410.65	0.0672	581.4	10.466	21.68	12.24	1.45
	115.81	22.77	65.99	0.00	0.0607	11.01	484.6	410.60	0.0671	581.4	10.465	21.68	12.24	1.45
	116.81	22.73	65.99	0.00	0.0606	11.01	484.6	410.58	0.0672	581.5	10.467	21.68	12.24	1.44
	117.81	22.77	65.99	0.00	0.0606	11.01	484.6	410.61	0.0672	582.2	10.479	21.71	12.26	1.45
	118.81	22.75	65.96	0.00	0.0607	11.02	484.8	410.94	0.0672	583.0	10.493	21.74	12.28	1.44
	119.81	22.77	65.99	0.00	0.0607	11.02	485.0	410.97	0.0672	583.2	10.498	21.75	12.29	1.44
	120.80	22.77	65.99	0.00	0.0607	11.02	485.0	411.01	0.0672	583.7	10.506	21.76	12.30	1.45
	121.83	22.79	65.99	0.00	0.0607	11.03	485.1	411.12	0.0674	584.5	10.521	21.79	12.33	1.44
	122.81	22.77	65.96	0.00	0.0608	11.02	485.1	411.20	0.0674	584.6	10.523	21.80	12.33	1.44
	123.81	22.77	65.99	0.00	0.0608	11.03	485.1	411.09	0.0675	584.3	10.518	21.79	12.32	1.44
	124.81	22.77	65.96	0.00	0.0608	11.03	485.4	411.49	0.0675	585.0	10.529	21.82	12.34	1.44
	125.83	22.75	65.99	0.00	0.0608	11.03	485.3	411.16	0.0675	584.5	10.521	21.79	12.32	1.44
