Mar 14 2018 at 8:33:34
Frequency: 1.00Hz.
CO2
Zero:  Value:0.91  Date:May 19 2009 at 7:53:33 AM
Span:  Value:1.00  Date:May 19 2009 at 8:00:06 AM
H2O
Zero:  Value:0.77  Date:May 19 2009 at 7:54:01 AM
Span:  Value:1.01  Date:28 Jun 2004	 at 08:29:05	
Third attempt at anomalous CO2 drawdown, partly cloud and bright
	Relative Time	Temperature	Pressure	Aux Input	CO2 Absorptance	CO2 mmol/m3	CO2 mg/m3	CO2 umol/mol	H2O Absorptance	H2O mmol/m3	H2O g/m3	H2O mmol/mol	H2O(°C)	Cooler Voltage
	0.36	21.14	65.93	0.00	0.0599	10.84	476.8	402.09	0.0581	473.9	8.530	17.59	9.09	1.42
	1.38	21.14	65.93	0.00	0.0599	10.83	476.5	401.87	0.0587	479.6	8.632	17.80	9.27	1.42
	2.36	21.14	65.96	0.00	0.0599	10.83	476.5	401.69	0.0591	484.2	8.716	17.96	9.41	1.42
	3.36	21.14	65.96	0.00	0.0599	10.83	476.6	401.81	0.0588	483.7	8.706	17.94	9.40	1.43
	4.38	21.16	65.96	0.00	0.0598	10.83	476.5	401.77	0.0589	482.4	8.683	17.90	9.36	1.42
	5.36	21.18	65.96	0.00	0.0598	10.83	476.5	401.77	0.0593	484.4	8.720	17.97	9.42	1.42
	6.38	21.16	65.96	0.00	0.0599	10.83	476.6	401.80	0.0594	489.7	8.815	18.17	9.58	1.42
	7.36	21.16	65.93	0.00	0.0599	10.83	476.4	401.80	0.0591	485.8	8.744	18.03	9.46	1.42
	8.38	21.16	65.96	0.00	0.0599	10.83	476.5	401.71	0.0595	489.2	8.805	18.15	9.56	1.42
	9.36	21.16	65.96	0.00	0.0599	10.85	477.2	402.34	0.0600	492.4	8.863	18.27	9.66	1.43
	10.38	21.18	65.93	0.00	0.0600	10.87	478.1	403.25	0.0598	497.0	8.947	18.45	9.80	1.43
	11.36	21.18	65.96	0.00	0.0600	10.86	477.8	402.89	0.0601	497.6	8.958	18.46	9.82	1.42
	12.38	21.18	65.96	0.00	0.0599	10.84	476.8	402.01	0.0601	497.5	8.956	18.46	9.82	1.42
	13.36	21.16	65.93	0.00	0.0599	10.84	476.9	402.21	0.0603	497.4	8.953	18.46	9.81	1.42
	14.38	21.18	65.94	0.00	0.0599	10.85	477.4	402.65	0.0605	500.7	9.013	18.58	9.91	1.42
	15.44	21.18	65.94	0.00	0.0600	10.85	477.3	402.53	0.0606	500.7	9.012	18.58	9.91	1.43
	16.38	21.19	65.93	0.00	0.0600	10.85	477.2	402.55	0.0604	500.0	9.001	18.56	9.89	1.43
	17.38	21.19	65.93	0.00	0.0599	10.84	476.9	402.31	0.0604	502.7	9.049	18.66	9.97	1.42
	18.36	21.19	65.96	0.00	0.0599	10.85	477.2	402.41	0.0606	504.8	9.086	18.73	10.03	1.42
	19.38	21.21	65.93	0.00	0.0600	10.85	477.2	402.57	0.0611	506.0	9.107	18.78	10.07	1.42
	20.36	21.19	65.94	0.00	0.0599	10.84	476.9	402.25	0.0608	503.5	9.063	18.69	10.00	1.42
	21.38	21.19	65.96	0.00	0.0599	10.84	477.1	402.30	0.0608	504.1	9.074	18.70	10.01	1.42
	22.36	21.19	65.96	0.00	0.0600	10.87	478.4	403.38	0.0613	512.7	9.229	19.02	10.27	1.43
	23.38	21.21	65.96	0.00	0.0599	10.86	477.9	402.96	0.0609	509.7	9.175	18.91	10.18	1.42
	24.36	21.21	65.96	0.00	0.0600	10.87	478.2	403.24	0.0613	512.1	9.218	19.00	10.25	1.42
	25.38	21.21	65.96	0.00	0.0600	10.87	478.5	403.47	0.0617	516.2	9.291	19.15	10.37	1.42
	26.36	21.19	65.94	0.00	0.0601	10.87	478.2	403.32	0.0617	515.8	9.284	19.14	10.36	1.42
	27.38	21.21	65.96	0.00	0.0600	10.87	478.5	403.47	0.0618	517.5	9.315	19.20	10.41	1.43
	28.38	21.21	65.96	0.00	0.0600	10.87	478.3	403.33	0.0619	517.8	9.320	19.21	10.41	1.43
	29.36	21.23	65.96	0.00	0.0600	10.87	478.1	403.16	0.0618	517.1	9.307	19.19	10.39	1.42
	30.38	21.19	65.93	0.00	0.0601	10.88	478.6	403.67	0.0621	520.0	9.361	19.30	10.48	1.42
	31.36	21.25	65.94	0.00	0.0601	10.87	478.4	403.58	0.0621	520.5	9.369	19.32	10.49	1.42
	32.38	21.23	65.96	0.00	0.0601	10.89	479.0	403.92	0.0624	523.2	9.418	19.41	10.57	1.42
	33.36	21.23	65.96	0.00	0.0600	10.87	478.3	403.36	0.0622	521.8	9.392	19.36	10.53	1.43
	34.38	21.23	65.96	0.00	0.0600	10.87	478.2	403.30	0.0620	520.9	9.376	19.33	10.51	1.42
	35.36	21.23	65.96	0.00	0.0602	10.89	479.3	404.21	0.0632	532.7	9.589	19.77	10.84	1.42
	36.38	21.23	65.96	0.00	0.0601	10.88	478.8	403.76	0.0627	526.8	9.482	19.55	10.67	1.42
	37.36	21.21	65.96	0.00	0.0600	10.88	478.8	403.75	0.0625	526.1	9.471	19.52	10.66	1.42
	38.38	21.21	65.96	0.00	0.0601	10.88	478.6	403.61	0.0626	526.4	9.474	19.53	10.66	1.43
	39.38	21.23	65.96	0.00	0.0601	10.88	478.9	403.84	0.0629	527.6	9.497	19.58	10.70	1.43
	40.38	21.23	65.93	0.00	0.0601	10.88	478.7	403.86	0.0627	526.8	9.482	19.55	10.67	1.42
	41.38	21.26	65.96	0.00	0.0601	10.88	478.7	403.70	0.0629	527.5	9.495	19.58	10.70	1.42
	42.36	21.24	65.98	0.00	0.0602	10.89	479.3	404.10	0.0631	531.5	9.568	19.72	10.81	1.42
	43.38	21.26	65.93	0.00	0.0601	10.89	479.3	404.38	0.0629	531.8	9.573	19.74	10.82	1.42
	44.36	21.24	65.93	0.00	0.0601	10.88	478.8	403.95	0.0629	529.1	9.524	19.64	10.74	1.43
	45.38	21.26	65.96	0.00	0.0602	10.90	479.4	404.31	0.0631	533.6	9.606	19.80	10.87	1.43
	46.36	21.26	65.96	0.00	0.0602	10.89	479.1	404.10	0.0631	532.2	9.579	19.75	10.83	1.42
	47.38	21.26	65.96	0.00	0.0601	10.89	479.3	404.24	0.0632	533.8	9.608	19.81	10.87	1.42
	48.36	21.24	65.96	0.00	0.0602	10.90	479.6	404.48	0.0635	535.8	9.644	19.88	10.93	1.42
	49.38	21.26	65.96	0.00	0.0602	10.93	480.8	405.49	0.0636	541.4	9.745	20.09	11.09	1.42
	50.44	21.28	65.96	0.00	0.0602	10.90	479.7	404.56	0.0636	537.3	9.671	19.94	10.97	1.43
	51.38	21.28	65.96	0.00	0.0602	10.90	479.8	404.67	0.0637	538.7	9.697	19.99	11.01	1.43
	52.38	21.28	65.93	0.00	0.0602	10.90	479.8	404.82	0.0638	540.4	9.727	20.06	11.06	1.42
	53.38	21.28	65.94	0.00	0.0602	10.92	480.3	405.23	0.0637	542.3	9.761	20.13	11.11	1.42
	54.38	21.30	65.93	0.00	0.0603	10.91	480.2	405.20	0.0640	541.9	9.754	20.12	11.10	1.42
	55.36	21.30	65.96	0.00	0.0602	10.91	480.1	404.98	0.0639	541.7	9.751	20.10	11.10	1.42
	56.38	21.30	65.96	0.00	0.0603	10.92	480.3	405.12	0.0640	543.9	9.789	20.18	11.16	1.43
	57.36	21.30	65.93	0.00	0.0602	10.91	480.1	405.15	0.0639	543.0	9.775	20.16	11.14	1.42
	58.38	21.30	65.96	0.00	0.0602	10.91	480.2	405.01	0.0641	544.0	9.793	20.19	11.16	1.42
	59.36	21.30	65.96	0.00	0.0603	10.91	480.1	404.98	0.0642	543.9	9.790	20.19	11.16	1.42
	60.38	21.30	65.98	0.00	0.0602	10.91	480.0	404.72	0.0640	544.3	9.798	20.20	11.17	1.42
	61.36	21.30	65.93	0.00	0.0603	10.92	480.4	405.40	0.0643	546.1	9.830	20.28	11.22	1.43
	62.38	21.33	65.96	0.00	0.0603	10.92	480.6	405.43	0.0643	547.0	9.846	20.30	11.25	1.43
	63.38	21.30	65.96	0.00	0.0603	10.92	480.6	405.36	0.0643	547.5	9.855	20.32	11.26	1.43
	64.38	21.31	65.94	0.00	0.0603	10.93	481.0	405.84	0.0645	550.5	9.910	20.44	11.34	1.42
	65.38	21.35	65.96	0.00	0.0603	10.93	480.9	405.73	0.0645	549.7	9.894	20.40	11.32	1.42
	66.38	21.31	65.91	0.00	0.0603	10.93	480.9	406.01	0.0646	550.7	9.912	20.45	11.35	1.42
	67.38	21.29	65.93	0.00	0.0603	10.93	481.0	405.88	0.0646	550.8	9.914	20.45	11.35	1.43
	68.36	21.35	65.93	0.00	0.0602	10.94	481.4	406.32	0.0646	553.6	9.965	20.56	11.43	1.42
	69.38	21.31	65.96	0.00	0.0605	10.96	482.3	406.85	0.0655	559.1	10.063	20.75	11.58	1.42
	70.36	21.31	65.93	0.00	0.0604	10.94	481.2	406.06	0.0649	552.6	9.947	20.52	11.40	1.42
	71.38	21.33	65.96	0.00	0.0604	10.94	481.4	406.12	0.0649	553.7	9.967	20.55	11.43	1.42
	72.36	21.33	65.96	0.00	0.0604	10.94	481.4	406.07	0.0649	552.9	9.952	20.52	11.41	1.42
	73.38	21.33	65.93	0.00	0.0604	10.95	481.6	406.43	0.0650	555.8	10.005	20.64	11.49	1.43
	74.44	21.33	65.96	0.00	0.0604	10.94	481.4	406.07	0.0651	554.5	9.981	20.58	11.45	1.42
	75.38	21.33	65.96	0.00	0.0604	10.95	481.7	406.35	0.0650	556.9	10.024	20.67	11.52	1.42
	76.38	21.35	65.94	0.00	0.0604	10.95	481.9	406.72	0.0652	558.9	10.060	20.75	11.57	1.42
	77.38	21.35	65.93	0.00	0.0604	10.95	481.6	406.45	0.0652	557.0	10.026	20.68	11.52	1.43
	78.38	21.35	65.96	0.00	0.0604	10.94	481.6	406.25	0.0652	555.4	9.997	20.62	11.48	1.42
	79.38	21.35	65.96	0.00	0.0604	10.95	481.9	406.56	0.0652	558.2	10.047	20.72	11.55	1.43
	80.38	21.35	65.93	0.00	0.0604	10.95	481.7	406.56	0.0652	557.4	10.034	20.70	11.53	1.43
	81.36	21.35	65.93	0.00	0.0604	10.96	482.1	406.84	0.0654	560.0	10.080	20.80	11.60	1.42
	82.38	21.35	65.96	0.00	0.0605	10.96	482.2	406.77	0.0654	561.0	10.097	20.82	11.63	1.42
	83.36	21.36	65.96	0.00	0.0604	10.96	482.2	406.86	0.0655	561.3	10.103	20.84	11.64	1.42
	84.38	21.36	65.96	0.00	0.0604	10.96	482.3	406.94	0.0656	561.6	10.108	20.85	11.64	1.42
	85.38	21.36	65.96	0.00	0.0605	10.96	482.3	406.88	0.0655	561.8	10.112	20.86	11.65	1.43
	86.38	21.36	65.96	0.00	0.0604	10.96	482.4	406.96	0.0655	561.9	10.114	20.86	11.65	1.43
	87.38	21.38	65.96	0.00	0.0605	10.96	482.2	406.88	0.0656	562.4	10.124	20.88	11.67	1.43
	88.38	21.36	65.96	0.00	0.0605	10.98	483.1	407.62	0.0658	567.7	10.219	21.08	11.81	1.43
	89.38	21.36	65.93	0.00	0.0605	10.98	483.2	407.86	0.0661	567.4	10.213	21.07	11.80	1.42
	90.38	21.38	65.96	0.00	0.0605	10.97	482.7	407.26	0.0659	564.8	10.167	20.97	11.73	1.42
	91.38	21.36	65.93	0.00	0.0605	10.97	482.7	407.43	0.0657	565.1	10.171	20.99	11.74	1.43
	92.38	21.40	65.96	0.00	0.0605	10.98	483.1	407.67	0.0661	568.5	10.233	21.11	11.83	1.43
	93.38	21.38	65.96	0.00	0.0604	10.97	482.8	407.36	0.0658	566.7	10.200	21.04	11.78	1.42
	94.36	21.38	65.93	0.00	0.0605	10.97	482.9	407.57	0.0659	566.5	10.196	21.04	11.78	1.42
	95.38	21.38	65.93	0.00	0.0605	10.98	483.0	407.69	0.0660	567.3	10.211	21.07	11.80	1.42
	96.36	21.38	65.96	0.00	0.0605	10.98	483.0	407.49	0.0660	567.4	10.213	21.06	11.80	1.43
	97.38	21.38	65.96	0.00	0.0605	10.97	482.9	407.41	0.0660	567.2	10.210	21.06	11.80	1.43
	98.44	21.36	65.96	0.00	0.0606	10.98	483.2	407.68	0.0662	568.9	10.240	21.12	11.84	1.42
	99.38	21.40	65.99	0.00	0.0606	10.98	483.2	407.55	0.0662	569.3	10.248	21.13	11.85	1.43
	100.38	21.38	65.94	0.00	0.0605	10.99	483.6	408.15	0.0661	571.0	10.278	21.21	11.90	1.43
	101.38	21.40	65.96	0.00	0.0605	10.98	483.3	407.81	0.0662	569.6	10.253	21.15	11.86	1.43
	102.38	21.40	65.92	0.00	0.0606	10.99	483.7	408.38	0.0666	572.7	10.308	21.27	11.94	1.43
	103.38	21.42	65.96	0.00	0.0605	10.99	483.7	408.19	0.0663	572.6	10.307	21.26	11.94	1.43
	104.38	21.40	65.91	0.00	0.0606	11.01	484.5	409.09	0.0666	576.2	10.372	21.41	12.04	1.43
	105.38	21.38	65.92	0.00	0.0606	11.00	483.9	408.51	0.0664	573.5	10.324	21.31	11.97	1.43
	106.38	21.40	65.93	0.00	0.0606	11.00	483.9	408.47	0.0664	572.9	10.312	21.28	11.95	1.43
	107.36	21.41	65.91	0.00	0.0606	11.00	483.8	408.61	0.0665	573.0	10.314	21.29	11.95	1.43
	108.38	21.41	65.96	0.00	0.0606	11.00	483.8	408.25	0.0664	573.6	10.325	21.30	11.97	1.43
	109.45	21.43	65.94	0.00	0.0607	11.00	484.0	408.58	0.0666	574.5	10.341	21.34	11.99	1.43
	110.38	21.41	65.96	0.00	0.0606	11.00	484.1	408.51	0.0666	575.1	10.353	21.35	12.01	1.43
	111.38	21.45	65.96	0.00	0.0607	11.00	484.1	408.51	0.0666	574.2	10.335	21.32	11.99	1.43
	112.38	21.41	65.96	0.00	0.0606	11.00	484.1	408.52	0.0666	574.8	10.346	21.34	12.00	1.43
	113.38	21.41	65.93	0.00	0.0607	11.01	484.5	409.00	0.0670	577.5	10.395	21.45	12.07	1.43
	114.38	21.43	65.93	0.00	0.0607	11.02	484.8	409.25	0.0667	578.3	10.410	21.48	12.09	1.43
	115.38	21.43	65.93	0.00	0.0606	11.01	484.5	409.00	0.0666	577.0	10.386	21.43	12.06	1.43
	116.38	21.43	65.96	0.00	0.0606	11.01	484.4	408.74	0.0667	576.6	10.378	21.41	12.05	1.43
	117.38	21.43	65.93	0.00	0.0607	11.01	484.4	408.98	0.0668	577.9	10.402	21.47	12.08	1.43
	118.38	21.41	65.93	0.00	0.0607	11.02	484.8	409.26	0.0669	578.2	10.408	21.48	12.09	1.43
	119.38	21.45	65.93	0.00	0.0607	11.02	484.8	409.33	0.0669	578.2	10.408	21.48	12.09	1.43
	120.36	21.43	65.91	0.00	0.0608	11.02	485.0	409.55	0.0670	579.0	10.423	21.52	12.11	1.43
	121.38	21.45	65.93	0.00	0.0607	11.02	484.8	409.32	0.0668	577.5	10.396	21.45	12.07	1.43
	122.36	21.45	65.96	0.00	0.0607	11.02	485.0	409.29	0.0671	580.8	10.455	21.57	12.16	1.43
	123.38	21.45	65.98	0.00	0.0607	11.02	484.9	409.12	0.0671	580.0	10.440	21.53	12.14	1.43
	124.38	21.45	65.96	0.00	0.0607	11.02	485.0	409.28	0.0670	578.8	10.419	21.49	12.11	1.43
	125.38	21.45	65.96	0.00	0.0607	11.02	484.9	409.25	0.0671	580.1	10.442	21.54	12.14	1.43
	126.38	21.43	65.94	0.00	0.0608	11.04	485.7	409.98	0.0674	586.0	10.548	21.77	12.30	1.43
	127.38	21.45	65.96	0.00	0.0608	11.03	485.4	409.67	0.0672	582.7	10.489	21.64	12.21	1.43
	128.38	21.45	65.94	0.00	0.0608	11.03	485.4	409.80	0.0671	582.4	10.483	21.63	12.20	1.43
	129.36	21.47	65.94	0.00	0.0607	11.03	485.5	409.87	0.0673	583.3	10.499	21.67	12.23	1.43
	130.38	21.45	65.96	0.00	0.0607	11.03	485.3	409.57	0.0672	582.6	10.486	21.63	12.21	1.43
	131.36	21.47	65.96	0.00	0.0608	11.03	485.5	409.74	0.0673	582.7	10.489	21.64	12.21	1.43
	132.38	21.47	65.93	0.00	0.0607	11.04	485.6	410.03	0.0672	583.8	10.508	21.69	12.24	1.43
	133.44	21.47	65.96	0.00	0.0608	11.04	485.8	409.99	0.0673	584.7	10.525	21.71	12.26	1.43
	134.38	21.47	65.93	0.00	0.0608	11.04	485.9	410.25	0.0674	584.8	10.526	21.72	12.26	1.43
	135.44	21.47	65.96	0.00	0.0608	11.04	485.8	410.03	0.0675	583.3	10.499	21.66	12.23	1.43
	136.38	21.47	65.96	0.00	0.0608	11.05	486.0	410.16	0.0674	584.7	10.524	21.71	12.26	1.43
