Mar 15 2018 at 10:34:25
Frequency: 1.00Hz.
CO2
Zero:  Value:0.91  Date:May 19 2009 at 7:53:33 AM
Span:  Value:1.00  Date:May 19 2009 at 8:00:06 AM
H2O
Zero:  Value:0.77  Date:May 19 2009 at 7:54:01 AM
Span:  Value:1.01  Date:28 Jun 2004	 at 08:29:05	
Light fog and high PAR
	Relative Time	Temperature	Pressure	Aux Input	CO2 Absorptance	CO2 mmol/m3	CO2 mg/m3	CO2 umol/mol	H2O Absorptance	H2O mmol/m3	H2O g/m3	H2O mmol/mol	H2O(°C)	Cooler Voltage
	0.27	23.05	67.50	0.00	0.0609	11.02	484.7	401.93	0.0673	579.1	10.423	21.13	12.20	1.46
	1.25	23.08	67.50	0.00	0.0611	11.02	485.0	402.17	0.0677	580.1	10.442	21.17	12.23	1.46
	2.27	23.06	67.50	0.00	0.0609	11.02	484.8	402.00	0.0675	581.7	10.471	21.22	12.27	1.46
	3.25	23.06	67.50	0.00	0.0608	11.02	485.0	402.19	0.0677	582.5	10.485	21.25	12.29	1.46
	4.27	23.08	67.52	0.00	0.0611	11.02	485.0	402.07	0.0676	582.5	10.486	21.25	12.29	1.46
	5.25	23.06	67.55	0.00	0.0611	11.02	485.1	401.96	0.0679	583.7	10.506	21.28	12.32	1.46
	6.27	23.06	67.52	0.00	0.0610	11.02	485.0	402.03	0.0680	585.0	10.531	21.34	12.35	1.46
	7.25	23.06	67.50	0.00	0.0610	11.01	484.6	401.86	0.0679	583.3	10.500	21.28	12.31	1.46
	8.25	23.06	67.50	0.00	0.0610	11.03	485.2	402.37	0.0679	586.8	10.562	21.41	12.40	1.46
	9.25	23.06	67.52	0.00	0.0611	11.03	485.2	402.18	0.0681	587.3	10.571	21.42	12.41	1.46
	10.27	23.06	67.52	250.00	0.0612	11.03	485.3	402.24	0.0680	586.9	10.564	21.41	12.40	1.46
	11.25	23.05	67.49	0.00	0.0612	11.03	485.4	402.50	0.0682	588.1	10.585	21.46	12.43	1.46
	12.25	23.06	67.50	0.00	0.0611	11.03	485.2	402.33	0.0681	587.6	10.576	21.44	12.42	1.46
	13.27	23.06	67.50	250.00	0.0611	11.02	485.0	402.20	0.0681	587.7	10.579	21.44	12.42	1.46
	14.25	23.06	67.47	0.00	0.0609	11.03	485.2	402.52	0.0681	588.0	10.583	21.46	12.43	1.46
	15.27	23.06	67.50	0.00	0.0611	11.03	485.2	402.33	0.0681	589.3	10.608	21.50	12.47	1.46
	16.25	23.06	67.50	0.00	0.0612	11.03	485.4	402.55	0.0684	590.7	10.632	21.55	12.50	1.46
	17.27	23.06	67.52	0.00	0.0612	11.03	485.5	402.47	0.0684	591.2	10.642	21.56	12.51	1.46
	18.25	23.06	67.52	0.00	0.0609	11.03	485.5	402.42	0.0686	592.1	10.658	21.60	12.54	1.46
	19.27	23.08	67.50	0.00	0.0612	11.05	486.0	403.05	0.0685	592.8	10.671	21.63	12.56	1.46
	20.25	23.06	67.50	0.00	0.0610	11.05	486.1	403.06	0.0686	592.4	10.664	21.62	12.55	1.46
	21.27	23.06	67.50	0.00	0.0612	11.05	486.1	403.08	0.0687	595.0	10.710	21.71	12.61	1.46
	22.25	23.08	67.47	0.00	0.0611	11.05	486.3	403.41	0.0687	594.4	10.700	21.70	12.60	1.46
	23.27	23.08	67.50	0.00	0.0610	11.06	486.6	403.50	0.0687	595.1	10.711	21.71	12.61	1.46
	24.25	23.08	67.47	0.00	0.0611	11.05	486.3	403.46	0.0690	598.6	10.774	21.85	12.70	1.46
	25.27	23.08	67.50	0.00	0.0613	11.06	486.7	403.61	0.0689	597.3	10.751	21.79	12.67	1.46
	26.25	23.06	67.50	0.00	0.0612	11.08	487.4	404.14	0.0689	597.9	10.762	21.82	12.69	1.46
	27.25	23.04	67.50	0.00	0.0614	11.08	487.3	404.09	0.0691	598.7	10.776	21.84	12.70	1.46
	28.25	23.08	67.50	0.00	0.0612	11.08	487.5	404.25	0.0692	599.9	10.798	21.89	12.74	1.46
	29.25	23.08	67.50	0.00	0.0613	11.08	487.5	404.29	0.0693	600.8	10.815	21.92	12.76	1.46
	30.25	23.06	67.50	0.00	0.0613	11.08	487.6	404.37	0.0691	600.8	10.814	21.92	12.76	1.46
	31.25	23.06	67.50	0.00	0.0611	11.09	487.9	404.58	0.0692	601.7	10.831	21.96	12.78	1.46
	32.27	23.06	67.50	0.00	0.0612	11.09	487.8	404.53	0.0694	603.3	10.859	22.01	12.82	1.46
	33.25	23.08	67.50	0.00	0.0614	11.09	488.1	404.78	0.0693	603.3	10.859	22.01	12.82	1.46
	34.27	23.08	67.50	0.00	0.0612	11.09	487.8	404.54	0.0695	604.8	10.886	22.07	12.86	1.46
	35.25	23.10	67.50	0.00	0.0613	11.09	488.1	404.83	0.0695	604.9	10.889	22.07	12.87	1.46
	36.27	23.10	67.50	0.00	0.0613	11.09	488.0	404.73	0.0693	604.6	10.883	22.06	12.86	1.46
	37.27	23.08	67.50	250.00	0.0614	11.10	488.3	404.91	0.0695	605.0	10.891	22.08	12.87	1.46
	38.27	23.12	67.52	0.00	0.0614	11.09	488.0	404.64	0.0699	608.3	10.950	22.19	12.95	1.46
	39.25	23.08	67.50	0.00	0.0615	11.10	488.5	405.07	0.0698	608.5	10.952	22.20	12.95	1.46
	40.27	23.10	67.50	0.00	0.0615	11.11	488.7	405.33	0.0699	607.9	10.942	22.18	12.94	1.46
	41.25	23.10	67.50	0.00	0.0614	11.11	488.8	405.39	0.0697	608.3	10.949	22.20	12.95	1.46
	42.27	23.08	67.47	0.00	0.0615	11.11	489.0	405.70	0.0698	608.4	10.950	22.21	12.95	1.46
	43.25	23.08	67.50	0.00	0.0614	11.13	489.5	405.96	0.0699	610.8	10.995	22.29	13.01	1.46
	44.27	23.08	67.50	0.00	0.0613	11.11	489.0	405.53	0.0699	610.0	10.980	22.26	12.99	1.46
	45.25	23.08	67.50	0.00	0.0615	11.12	489.1	405.59	0.0699	610.6	10.991	22.28	13.01	1.46
	46.25	23.10	67.50	0.00	0.0614	11.12	489.1	405.61	0.0700	612.0	11.015	22.33	13.04	1.46
	47.25	23.12	67.50	0.00	0.0615	11.12	489.2	405.76	0.0699	611.9	11.015	22.33	13.04	1.46
	48.25	23.08	67.50	0.00	0.0616	11.13	489.6	406.02	0.0701	611.9	11.015	22.33	13.04	1.46
	49.25	23.10	67.50	0.00	0.0615	11.13	489.7	406.11	0.0702	612.5	11.026	22.35	13.06	1.46
	50.25	23.10	67.50	0.00	0.0615	11.13	489.6	406.03	0.0701	613.0	11.033	22.37	13.07	1.46
	51.27	23.12	67.50	0.00	0.0615	11.13	489.5	405.99	0.0704	614.3	11.058	22.42	13.10	1.46
	52.25	23.10	67.50	0.00	0.0614	11.13	489.7	406.09	0.0705	615.5	11.078	22.46	13.13	1.46
	53.27	23.14	67.50	0.00	0.0614	11.13	489.5	406.02	0.0702	613.1	11.036	22.37	13.07	1.46
	54.25	23.10	67.50	0.00	0.0615	11.14	490.1	406.42	0.0703	615.7	11.082	22.47	13.14	1.46
	55.27	23.12	67.50	0.00	0.0614	11.13	489.8	406.20	0.0703	615.9	11.086	22.47	13.14	1.46
	56.25	23.10	67.50	0.00	0.0615	11.14	490.0	406.37	0.0702	616.4	11.095	22.49	13.15	1.46
	57.27	23.12	67.50	0.00	0.0617	11.15	490.4	406.75	0.0707	617.6	11.118	22.54	13.18	1.46
	58.25	23.10	67.47	0.00	0.0617	11.14	490.3	406.80	0.0706	619.6	11.152	22.62	13.23	1.46
	59.27	23.12	67.52	0.00	0.0617	11.14	490.2	406.42	0.0708	620.1	11.161	22.62	13.24	1.46
	60.25	23.10	67.52	0.00	0.0614	11.15	490.6	406.70	0.0705	618.4	11.131	22.56	13.20	1.46
	61.27	23.10	67.50	0.00	0.0615	11.15	490.8	407.02	0.0705	618.5	11.132	22.57	13.20	1.46
	62.25	23.10	67.50	0.00	0.0615	11.16	490.9	407.11	0.0706	619.7	11.155	22.61	13.23	1.46
	63.27	23.10	67.50	0.00	0.0618	11.17	491.3	407.49	0.0707	620.0	11.160	22.62	13.24	1.46
	64.25	23.14	67.50	0.00	0.0616	11.16	491.2	407.42	0.0708	620.9	11.177	22.66	13.27	1.46
	65.25	23.12	67.52	0.00	0.0616	11.16	491.2	407.26	0.0708	620.6	11.171	22.64	13.26	1.46
	66.25	23.12	67.50	0.00	0.0617	11.17	491.4	407.56	0.0708	622.5	11.204	22.72	13.30	1.46
	67.25	23.12	67.50	0.00	0.0617	11.19	492.2	408.25	0.0710	623.2	11.217	22.74	13.32	1.46
	68.27	23.13	67.50	0.00	0.0618	11.17	491.6	407.73	0.0710	626.1	11.269	22.85	13.39	1.46
	69.25	23.12	67.50	0.00	0.0617	11.19	492.2	408.25	0.0709	623.7	11.227	22.76	13.33	1.46
	70.27	23.12	67.50	0.00	0.0617	11.19	492.4	408.36	0.0710	624.3	11.238	22.78	13.35	1.46
	71.25	23.10	67.50	0.00	0.0619	11.19	492.5	408.48	0.0711	624.9	11.248	22.80	13.36	1.46
	72.27	23.13	67.52	0.00	0.0617	11.19	492.5	408.35	0.0710	624.8	11.246	22.79	13.36	1.46
	73.25	23.13	67.50	0.00	0.0617	11.19	492.2	408.28	0.0710	624.2	11.236	22.78	13.35	1.46
	74.27	23.13	67.50	0.00	0.0619	11.19	492.4	408.39	0.0713	627.9	11.302	22.91	13.44	1.46
	75.25	23.13	67.50	0.00	0.0617	11.19	492.4	408.45	0.0714	630.1	11.341	22.99	13.49	1.46
	76.27	23.12	67.49	0.00	0.0618	11.21	493.2	409.05	0.0713	627.6	11.297	22.90	13.43	1.46
	77.25	23.10	67.50	0.00	0.0618	11.20	493.0	408.84	0.0713	628.6	11.314	22.94	13.45	1.46
	78.39	23.13	67.50	0.00	0.0619	11.21	493.2	409.04	0.0712	627.8	11.300	22.91	13.44	1.46
	79.25	23.15	67.47	0.00	0.0618	11.20	493.0	409.11	0.0714	629.2	11.326	22.97	13.47	1.46
	80.27	23.13	67.50	0.00	0.0619	11.21	493.3	409.13	0.0715	628.9	11.319	22.95	13.46	1.46
	81.25	23.15	67.50	0.00	0.0618	11.21	493.2	409.08	0.0713	629.6	11.334	22.98	13.48	1.46
	82.25	23.13	67.50	0.00	0.0618	11.21	493.3	409.19	0.0715	629.9	11.338	22.99	13.49	1.46
	83.25	23.13	67.50	0.00	0.0619	11.22	493.5	409.29	0.0714	630.5	11.348	23.01	13.50	1.46
	84.25	23.13	67.50	0.00	0.0620	11.22	493.5	409.33	0.0717	630.5	11.349	23.01	13.50	1.46
	85.27	23.13	67.52	0.00	0.0619	11.22	493.8	409.42	0.0716	631.4	11.366	23.04	13.52	1.46
	86.25	23.09	67.50	0.00	0.0617	11.22	493.9	409.56	0.0716	632.4	11.383	23.08	13.54	1.46
	87.27	23.15	67.50	0.00	0.0619	11.23	494.1	409.86	0.0719	633.4	11.402	23.12	13.57	1.46
	88.25	23.13	67.50	0.00	0.0620	11.23	494.1	409.81	0.0716	633.1	11.396	23.11	13.56	1.46
	89.27	23.11	67.50	0.00	0.0619	11.23	494.1	409.81	0.0718	633.5	11.403	23.12	13.57	1.46
	90.25	23.15	67.50	0.00	0.0621	11.24	494.6	410.29	0.0717	633.9	11.410	23.14	13.58	1.46
	91.27	23.15	67.50	0.00	0.0618	11.23	494.3	410.04	0.0718	633.9	11.410	23.13	13.58	1.46
	92.25	23.17	67.50	0.00	0.0619	11.24	494.6	410.28	0.0717	634.2	11.416	23.15	13.59	1.46
	93.27	23.15	67.50	0.00	0.0619	11.26	495.3	410.83	0.0720	635.8	11.444	23.20	13.63	1.46
	94.25	23.13	67.50	0.00	0.0621	11.25	495.0	410.55	0.0719	638.0	11.485	23.29	13.68	1.46
	95.27	23.15	67.50	0.00	0.0621	11.26	495.5	410.98	0.0718	635.2	11.434	23.18	13.62	1.46
	96.25	23.13	67.50	0.00	0.0621	11.25	495.1	410.65	0.0720	635.6	11.442	23.20	13.63	1.46
	97.27	23.15	67.50	0.00	0.0622	11.26	495.4	410.94	0.0719	635.6	11.440	23.20	13.62	1.46
	98.25	23.13	67.50	0.00	0.0620	11.27	496.1	411.45	0.0721	637.1	11.468	23.25	13.66	1.46
	99.27	23.13	67.50	0.00	0.0620	11.27	495.8	411.26	0.0720	637.6	11.477	23.27	13.67	1.46
	100.25	23.15	67.52	0.00	0.0621	11.27	496.0	411.25	0.0721	637.7	11.478	23.26	13.68	1.46
	101.25	23.15	67.50	0.00	0.0619	11.27	495.9	411.37	0.0722	639.5	11.511	23.34	13.72	1.46
	102.27	23.15	67.50	0.00	0.0620	11.28	496.1	411.54	0.0723	640.9	11.536	23.39	13.75	1.46
	103.25	23.15	67.50	0.00	0.0622	11.28	496.1	411.53	0.0721	638.2	11.487	23.29	13.69	1.46
	104.27	23.15	67.50	0.00	0.0621	11.27	496.1	411.49	0.0721	638.8	11.498	23.31	13.70	1.46
	105.25	23.15	67.50	0.00	0.0622	11.28	496.3	411.68	0.0721	638.5	11.492	23.30	13.70	1.46
	106.27	23.17	67.50	0.00	0.0621	11.28	496.3	411.69	0.0724	639.0	11.502	23.32	13.71	1.46
	107.25	23.15	67.50	0.00	0.0621	11.28	496.5	411.81	0.0721	639.0	11.502	23.32	13.71	1.46
	108.27	23.17	67.45	0.00	0.0621	11.28	496.3	412.00	0.0722	638.7	11.497	23.33	13.70	1.46
	109.25	23.15	67.52	0.00	0.0621	11.28	496.5	411.64	0.0723	639.7	11.515	23.34	13.73	1.46
	110.27	23.17	67.50	0.00	0.0621	11.29	496.9	412.19	0.0721	640.3	11.525	23.37	13.74	1.46
	111.25	23.17	67.50	0.00	0.0620	11.30	497.3	412.57	0.0723	641.5	11.547	23.41	13.77	1.46
	112.27	23.17	67.47	0.00	0.0622	11.31	497.6	412.90	0.0724	641.4	11.545	23.42	13.77	1.46
	113.25	23.15	67.50	0.00	0.0624	11.30	497.2	412.40	0.0725	641.9	11.554	23.43	13.78	1.46
	114.27	23.15	67.50	0.00	0.0622	11.30	497.4	412.56	0.0724	641.9	11.555	23.43	13.78	1.46
	115.25	23.17	67.52	0.00	0.0623	11.30	497.3	412.35	0.0727	644.3	11.597	23.51	13.84	1.46
	116.27	23.15	67.50	0.00	0.0622	11.30	497.4	412.56	0.0726	641.7	11.551	23.42	13.77	1.46
	117.25	23.15	67.52	0.00	0.0622	11.31	497.5	412.50	0.0725	643.3	11.580	23.47	13.81	1.46
	118.27	23.17	67.50	0.00	0.0624	11.32	497.9	413.07	0.0726	642.8	11.571	23.46	13.80	1.46
	119.33	23.19	67.50	0.00	0.0624	11.31	497.7	412.87	0.0725	642.7	11.568	23.46	13.80	1.46
	120.27	23.15	67.52	0.00	0.0624	11.32	497.9	412.85	0.0726	643.1	11.576	23.46	13.81	1.46
	121.27	23.17	67.47	0.00	0.0624	11.32	498.1	413.33	0.0726	643.9	11.590	23.51	13.83	1.46
	122.25	23.17	67.50	0.00	0.0623	11.32	498.1	413.21	0.0725	644.4	11.600	23.52	13.84	1.46
	123.33	23.17	67.50	0.00	0.0623	11.32	498.2	413.31	0.0728	645.8	11.624	23.57	13.87	1.46
	124.25	23.17	67.50	0.00	0.0623	11.33	498.4	413.41	0.0726	644.4	11.599	23.52	13.84	1.46
	125.27	23.15	67.50	0.00	0.0623	11.33	498.6	413.62	0.0725	645.2	11.614	23.55	13.86	1.47
	126.25	23.13	67.50	0.00	0.0622	11.33	498.6	413.57	0.0727	646.2	11.632	23.58	13.88	1.46
	127.27	23.15	67.52	0.00	0.0625	11.34	499.0	413.76	0.0727	645.8	11.624	23.56	13.87	1.46
	128.25	23.15	67.50	0.00	0.0624	11.34	499.1	413.98	0.0727	645.9	11.625	23.57	13.87	1.46
	129.27	23.19	67.50	0.00	0.0624	11.35	499.3	414.24	0.0728	646.2	11.631	23.59	13.88	1.46
	130.25	23.15	67.50	0.00	0.0624	11.35	499.4	414.21	0.0727	646.1	11.630	23.58	13.88	1.46
	131.27	23.15	67.50	0.00	0.0624	11.35	499.2	414.10	0.0726	646.2	11.632	23.59	13.88	1.47
	132.25	23.17	67.50	0.00	0.0625	11.36	499.7	414.49	0.0729	646.8	11.643	23.61	13.90	1.46
	133.27	23.19	67.50	0.00	0.0626	11.36	499.7	414.57	0.0728	647.5	11.656	23.64	13.91	1.46
	134.25	23.17	67.52	0.00	0.0625	11.36	499.8	414.48	0.0730	648.1	11.665	23.65	13.93	1.46
	135.27	23.19	67.52	0.00	0.0625	11.36	500.0	414.61	0.0728	647.3	11.651	23.62	13.91	1.46
	136.25	23.17	67.52	0.00	0.0625	11.37	500.2	414.75	0.0728	647.5	11.655	23.62	13.91	1.47
	137.27	23.19	67.50	0.00	0.0625	11.37	500.1	414.91	0.0728	648.0	11.664	23.65	13.92	1.47
	138.33	23.19	67.50	0.00	0.0626	11.38	500.5	415.24	0.0729	648.3	11.669	23.66	13.93	1.47
	139.25	23.21	67.50	0.00	0.0626	11.37	500.4	415.13	0.0730	649.2	11.685	23.70	13.95	1.46
	140.33	23.17	67.52	0.00	0.0627	11.37	500.4	414.93	0.0730	648.8	11.679	23.67	13.94	1.46
	141.25	23.19	67.50	0.00	0.0626	11.38	500.5	415.23	0.0731	648.8	11.679	23.68	13.94	1.46
