Mar 15 2018 at 10:24:49
Frequency: 1.00Hz.
CO2
Zero:  Value:0.91  Date:May 19 2009 at 7:53:33 AM
Span:  Value:1.00  Date:May 19 2009 at 8:00:06 AM
H2O
Zero:  Value:0.77  Date:May 19 2009 at 7:54:01 AM
Span:  Value:1.01  Date:28 Jun 2004	 at 08:29:05	
Light fog and high PAR
	Relative Time	Temperature	Pressure	Aux Input	CO2 Absorptance	CO2 mmol/m3	CO2 mg/m3	CO2 umol/mol	H2O Absorptance	H2O mmol/m3	H2O g/m3	H2O mmol/mol	H2O(°C)	Cooler Voltage
	0.64	22.72	67.52	0.00	0.0623	11.30	497.1	411.58	0.0665	568.1	10.226	20.70	11.89	1.45
	1.64	22.72	67.52	0.00	0.0621	11.28	496.5	411.10	0.0665	570.1	10.262	20.77	11.94	1.45
	2.64	22.72	67.55	0.00	0.0619	11.26	495.4	410.07	0.0671	577.4	10.392	21.03	12.14	1.45
	3.64	22.72	67.50	0.00	0.0621	11.26	495.6	410.51	0.0672	576.9	10.384	21.02	12.12	1.45
	4.64	22.72	67.50	0.00	0.0620	11.24	494.7	409.72	0.0679	582.6	10.488	21.23	12.27	1.45
	5.64	22.76	67.52	0.00	0.0620	11.26	495.3	410.14	0.0678	578.0	10.405	21.06	12.16	1.45
	6.64	22.72	67.50	0.00	0.0621	11.22	493.9	409.08	0.0679	587.9	10.582	21.43	12.41	1.45
	7.64	22.72	67.50	0.00	0.0619	11.21	493.4	408.67	0.0682	589.5	10.611	21.48	12.45	1.45
	8.64	22.76	67.52	0.00	0.0619	11.22	493.5	408.63	0.0678	588.7	10.596	21.45	12.43	1.45
	9.64	22.74	67.52	0.00	0.0617	11.22	493.5	408.66	0.0678	584.9	10.529	21.31	12.33	1.45
	10.64	22.74	67.52	0.00	0.0617	11.20	492.9	408.14	0.0684	590.9	10.637	21.53	12.49	1.45
	11.72	22.72	67.50	0.00	0.0619	11.20	492.8	408.17	0.0685	590.3	10.625	21.51	12.47	1.45
	12.64	22.72	67.52	0.00	0.0617	11.19	492.2	407.49	0.0686	592.0	10.656	21.57	12.52	1.45
	13.66	22.74	67.50	0.00	0.0617	11.17	491.6	407.21	0.0688	596.5	10.737	21.74	12.63	1.45
	14.64	22.72	67.52	0.00	0.0616	11.16	491.1	406.60	0.0688	600.4	10.807	21.87	12.73	1.45
	15.66	22.72	67.52	0.00	0.0616	11.16	490.9	406.45	0.0691	600.2	10.803	21.86	12.73	1.45
	16.64	22.74	67.50	0.00	0.0617	11.15	490.4	406.22	0.0689	600.8	10.815	21.90	12.74	1.45
	17.66	22.72	67.50	0.00	0.0615	11.13	489.7	405.63	0.0695	604.7	10.885	22.04	12.84	1.45
	18.64	22.72	67.50	0.00	0.0615	11.14	490.3	406.14	0.0694	603.0	10.853	21.97	12.80	1.45
	19.66	22.74	67.48	0.00	0.0614	11.13	489.6	405.64	0.0696	605.6	10.900	22.08	12.86	1.45
	20.64	22.76	67.50	0.00	0.0613	11.12	489.4	405.45	0.0696	606.7	10.921	22.11	12.89	1.45
	21.64	22.74	67.47	0.00	0.0614	11.13	489.7	405.79	0.0698	607.6	10.938	22.15	12.92	1.45
	22.64	22.74	67.50	0.00	0.0615	11.10	488.5	404.62	0.0702	612.0	11.016	22.31	13.02	1.45
	23.64	22.75	67.52	0.00	0.0615	11.11	488.9	404.82	0.0700	610.7	10.993	22.25	12.99	1.45
	24.64	22.74	67.52	0.00	0.0613	11.10	488.5	404.51	0.0704	613.0	11.034	22.33	13.05	1.45
	25.64	22.74	67.50	0.00	0.0614	11.11	489.0	405.01	0.0704	615.1	11.073	22.42	13.10	1.45
	26.64	22.74	67.47	0.00	0.0614	11.11	488.6	404.88	0.0705	615.8	11.085	22.45	13.12	1.45
	27.64	22.74	67.50	0.00	0.0614	11.08	487.5	403.83	0.0707	619.8	11.157	22.59	13.22	1.45
	28.66	22.75	67.52	0.00	0.0612	11.08	487.4	403.60	0.0709	619.7	11.154	22.58	13.22	1.45
	29.64	22.74	67.52	0.00	0.0613	11.09	488.0	404.04	0.0708	620.3	11.165	22.60	13.23	1.45
	30.66	22.74	67.50	0.00	0.0615	11.08	487.4	403.73	0.0709	623.3	11.220	22.72	13.30	1.45
	31.64	22.74	67.50	0.00	0.0613	11.07	487.1	403.51	0.0712	626.1	11.270	22.82	13.37	1.45
	32.66	22.74	67.50	0.00	0.0612	11.05	486.3	402.81	0.0711	626.8	11.282	22.84	13.39	1.45
	33.64	22.75	67.50	0.00	0.0610	11.07	487.0	403.40	0.0712	626.4	11.276	22.83	13.38	1.45
	34.66	22.74	67.50	0.00	0.0611	11.07	486.9	403.31	0.0713	627.0	11.285	22.85	13.39	1.45
	35.64	22.74	67.50	0.00	0.0611	11.06	486.8	403.20	0.0712	626.9	11.284	22.85	13.39	1.45
	36.66	22.74	67.50	0.00	0.0611	11.06	486.5	403.01	0.0715	631.3	11.364	23.01	13.50	1.45
	37.64	22.74	67.50	0.00	0.0612	11.06	486.7	403.16	0.0719	633.6	11.405	23.09	13.56	1.45
	38.66	22.75	67.52	0.00	0.0611	11.04	485.7	402.19	0.0719	637.5	11.474	23.23	13.65	1.45
	39.64	22.75	67.50	0.00	0.0611	11.04	485.9	402.53	0.0718	635.7	11.442	23.17	13.61	1.45
	40.64	22.76	67.50	0.00	0.0612	11.05	486.2	402.78	0.0720	635.6	11.442	23.17	13.61	1.45
	41.64	22.73	67.52	0.00	0.0612	11.05	486.0	402.40	0.0723	637.3	11.471	23.22	13.65	1.45
	42.64	22.75	67.50	0.00	0.0610	11.05	486.2	402.74	0.0722	637.6	11.477	23.24	13.65	1.45
	43.64	22.75	67.50	0.00	0.0610	11.04	485.7	402.38	0.0724	639.6	11.512	23.31	13.70	1.45
	44.64	22.73	67.52	0.00	0.0608	11.01	484.2	400.97	0.0726	645.6	11.621	23.52	13.84	1.45
	45.72	22.73	67.50	0.00	0.0608	11.01	484.6	401.43	0.0725	643.7	11.586	23.46	13.80	1.45
	46.66	22.75	67.47	249.90	0.0610	11.03	485.5	402.30	0.0725	644.1	11.593	23.48	13.81	1.45
	47.66	22.75	67.52	0.00	0.0610	11.01	484.5	401.18	0.0726	645.4	11.617	23.52	13.84	1.45
	48.64	22.75	67.50	0.00	0.0609	11.02	484.7	401.51	0.0727	648.0	11.664	23.62	13.90	1.45
	49.66	22.75	67.50	250.00	0.0610	11.01	484.6	401.47	0.0728	647.4	11.653	23.60	13.89	1.45
	50.64	22.75	67.52	0.00	0.0610	11.02	485.0	401.61	0.0731	647.7	11.659	23.60	13.90	1.45
	51.66	22.75	67.52	0.00	0.0609	11.00	484.1	400.86	0.0731	651.7	11.730	23.74	13.99	1.45
	52.64	22.75	67.50	0.00	0.0610	11.01	484.6	401.40	0.0734	652.5	11.744	23.78	14.01	1.45
	53.66	22.75	67.50	0.00	0.0610	11.00	483.9	400.89	0.0733	654.6	11.782	23.86	14.06	1.45
	54.64	22.74	67.52	0.00	0.0612	11.02	484.8	401.41	0.0735	655.4	11.797	23.88	14.08	1.45
	55.66	22.75	67.52	0.00	0.0610	10.99	483.7	400.54	0.0737	659.2	11.865	24.02	14.17	1.45
	56.64	22.77	67.52	0.00	0.0611	11.01	484.3	401.02	0.0735	656.6	11.818	23.92	14.11	1.45
	57.66	22.75	67.50	0.00	0.0609	10.97	482.5	399.68	0.0740	661.7	11.911	24.12	14.23	1.45
	58.64	22.73	67.50	0.00	0.0609	11.01	484.4	401.21	0.0738	660.0	11.880	24.05	14.18	1.45
	59.64	22.75	67.52	0.00	0.0609	10.99	483.5	400.39	0.0739	661.4	11.905	24.10	14.22	1.45
	60.64	22.77	67.50	0.00	0.0609	10.97	482.7	399.90	0.0739	663.3	11.940	24.18	14.26	1.45
	61.64	22.75	67.50	0.00	0.0610	10.99	483.4	400.46	0.0737	662.3	11.922	24.14	14.24	1.45
	62.72	22.73	67.50	0.00	0.0610	10.98	483.1	400.16	0.0740	663.8	11.948	24.19	14.27	1.45
	63.64	22.77	67.52	0.00	0.0608	10.97	482.8	399.81	0.0741	664.5	11.961	24.21	14.29	1.45
	64.66	22.77	67.50	0.00	0.0607	10.98	483.1	400.21	0.0741	665.0	11.971	24.24	14.30	1.45
	65.64	22.75	67.52	0.00	0.0607	10.98	483.2	400.12	0.0743	665.6	11.981	24.25	14.32	1.45
	66.66	22.75	67.50	0.00	0.0608	10.99	483.4	400.41	0.0744	666.1	11.990	24.28	14.33	1.45
	67.64	22.75	67.52	0.00	0.0609	10.98	482.9	399.92	0.0744	667.8	12.020	24.33	14.37	1.45
	68.66	22.77	67.52	0.00	0.0608	10.98	483.1	400.04	0.0744	667.4	12.014	24.32	14.36	1.45
	69.64	22.75	67.50	0.00	0.0607	10.95	481.9	399.16	0.0747	670.8	12.075	24.45	14.44	1.45
	70.66	22.77	67.50	0.00	0.0607	10.95	482.0	399.30	0.0747	671.5	12.088	24.48	14.45	1.45
	71.64	22.77	67.50	0.00	0.0606	10.95	481.6	398.99	0.0748	674.8	12.146	24.60	14.53	1.45
	72.66	22.77	67.50	0.00	0.0607	10.96	482.1	399.41	0.0749	671.9	12.095	24.49	14.46	1.45
	73.64	22.77	67.50	0.00	0.0608	10.95	482.0	399.26	0.0751	674.7	12.145	24.59	14.53	1.45
	74.66	22.75	67.50	0.00	0.0606	10.95	481.8	399.14	0.0748	674.1	12.134	24.57	14.51	1.45
	75.64	22.77	67.50	0.00	0.0606	10.94	481.6	398.93	0.0751	674.4	12.139	24.58	14.52	1.45
	76.66	22.77	67.50	0.00	0.0609	10.95	481.8	399.16	0.0751	675.2	12.154	24.61	14.54	1.45
	77.64	22.77	67.50	0.00	0.0607	10.95	481.7	399.05	0.0752	676.3	12.174	24.65	14.56	1.45
	78.66	22.77	67.50	0.00	0.0606	10.93	480.9	398.33	0.0753	678.6	12.215	24.73	14.62	1.45
	79.64	22.77	67.52	0.00	0.0606	10.94	481.2	398.52	0.0752	678.8	12.218	24.73	14.62	1.46
	80.64	22.77	67.50	0.00	0.0605	10.94	481.3	398.69	0.0753	680.5	12.249	24.80	14.66	1.45
	81.66	22.77	67.55	0.00	0.0605	10.93	481.0	398.15	0.0754	680.3	12.245	24.78	14.65	1.46
	82.64	22.77	67.52	0.00	0.0606	10.91	480.2	397.67	0.0754	682.6	12.287	24.87	14.71	1.46
	83.66	22.77	67.50	0.00	0.0606	10.92	480.7	398.20	0.0756	682.8	12.290	24.89	14.71	1.46
	84.64	22.77	67.50	0.00	0.0607	10.93	480.9	398.38	0.0756	683.5	12.304	24.91	14.73	1.46
	85.66	22.77	67.52	0.00	0.0605	10.90	479.6	397.19	0.0756	685.8	12.345	24.99	14.78	1.46
	86.64	22.79	67.52	0.00	0.0606	10.92	480.4	397.84	0.0759	686.2	12.351	25.00	14.79	1.46
	87.66	22.79	67.50	0.00	0.0607	10.93	480.8	398.29	0.0759	686.8	12.362	25.03	14.80	1.46
	88.64	22.77	67.47	0.00	0.0605	10.92	480.4	398.09	0.0759	688.9	12.400	25.12	14.85	1.46
	89.66	22.79	67.50	0.00	0.0606	10.91	479.9	397.57	0.0760	688.5	12.393	25.10	14.84	1.46
	90.64	22.79	67.50	0.00	0.0603	10.90	479.4	397.20	0.0765	692.2	12.460	25.23	14.93	1.46
	91.66	22.79	67.52	0.00	0.0603	10.87	478.2	396.05	0.0762	693.0	12.474	25.25	14.94	1.46
	92.64	22.79	67.50	0.00	0.0605	10.91	479.9	397.56	0.0762	690.5	12.428	25.17	14.89	1.46
	93.66	22.79	67.50	0.00	0.0606	10.90	479.6	397.36	0.0764	692.3	12.461	25.23	14.93	1.46
	94.64	22.77	67.50	0.00	0.0605	10.91	480.2	397.80	0.0763	692.5	12.466	25.24	14.93	1.46
	95.66	22.75	67.50	0.00	0.0605	10.91	479.9	397.50	0.0765	694.3	12.497	25.30	14.97	1.46
	96.64	22.77	67.50	0.00	0.0606	10.91	480.2	397.82	0.0763	694.1	12.494	25.30	14.97	1.46
	97.66	22.79	67.50	0.00	0.0605	10.91	480.0	397.67	0.0765	694.8	12.507	25.33	14.98	1.46
	98.64	22.77	67.50	0.00	0.0605	10.90	479.7	397.43	0.0765	695.0	12.510	25.33	14.99	1.46
	99.64	22.79	67.50	0.00	0.0605	10.89	479.4	397.14	0.0767	698.1	12.565	25.45	15.06	1.46
	100.66	22.79	67.50	0.00	0.0605	10.89	479.3	397.05	0.0766	696.9	12.544	25.40	15.03	1.46
	101.64	22.79	67.52	0.00	0.0605	10.91	479.8	397.37	0.0768	698.0	12.564	25.43	15.05	1.46
	102.66	22.77	67.50	0.00	0.0605	10.89	479.2	397.00	0.0767	698.9	12.580	25.47	15.07	1.46
	103.64	22.79	67.50	0.00	0.0603	10.88	478.6	396.52	0.0770	699.7	12.595	25.51	15.09	1.46
	104.66	22.79	67.50	0.00	0.0604	10.89	479.3	397.05	0.0768	700.4	12.606	25.53	15.11	1.46
	105.64	22.79	67.52	0.00	0.0603	10.89	479.3	396.94	0.0768	700.1	12.602	25.51	15.10	1.46
	106.66	22.79	67.50	0.00	0.0604	10.88	478.9	396.73	0.0770	701.4	12.626	25.57	15.13	1.46
	107.64	22.77	67.52	0.00	0.0605	10.89	479.2	396.80	0.0771	702.2	12.639	25.58	15.15	1.46
	108.66	22.80	67.50	0.00	0.0604	10.88	478.9	396.75	0.0771	703.5	12.663	25.65	15.18	1.46
	109.64	22.79	67.52	0.00	0.0606	10.89	479.1	396.77	0.0771	703.4	12.661	25.63	15.17	1.46
	110.66	22.80	67.49	0.00	0.0604	10.89	479.0	396.84	0.0771	703.9	12.670	25.66	15.19	1.46
	111.64	22.80	67.50	0.00	0.0603	10.87	478.3	396.27	0.0772	704.5	12.682	25.68	15.20	1.46
	112.66	22.80	67.50	0.00	0.0604	10.86	478.0	396.02	0.0773	706.6	12.720	25.76	15.25	1.46
	113.64	22.80	67.50	0.00	0.0602	10.83	476.3	394.63	0.0776	711.4	12.804	25.93	15.35	1.46
	114.66	22.80	67.50	0.00	0.0603	10.86	477.9	395.96	0.0773	707.3	12.732	25.79	15.26	1.46
	115.64	22.80	67.52	0.00	0.0602	10.86	477.7	395.60	0.0774	707.6	12.736	25.78	15.27	1.46
	116.66	22.80	67.50	0.00	0.0603	10.85	477.6	395.70	0.0776	708.6	12.755	25.83	15.29	1.46
	117.66	22.80	67.50	0.00	0.0602	10.85	477.6	395.70	0.0775	709.8	12.777	25.88	15.32	1.46
	118.64	22.80	67.50	0.00	0.0602	10.87	478.2	396.14	0.0775	709.5	12.771	25.86	15.31	1.46
	119.66	22.82	67.55	0.00	0.0602	10.85	477.4	395.29	0.0777	711.0	12.798	25.90	15.34	1.46
	120.64	22.80	67.50	0.00	0.0603	10.85	477.3	395.48	0.0779	711.2	12.802	25.93	15.35	1.46
	121.66	22.80	67.50	0.00	0.0603	10.85	477.4	395.57	0.0777	710.9	12.795	25.91	15.34	1.46
	122.64	22.78	67.50	0.00	0.0603	10.84	477.0	395.18	0.0778	711.8	12.813	25.95	15.36	1.46
	123.66	22.78	67.50	0.00	0.0603	10.85	477.4	395.48	0.0778	714.1	12.853	26.03	15.41	1.46
	124.64	22.80	67.50	0.00	0.0602	10.84	477.1	395.29	0.0778	713.2	12.837	26.00	15.39	1.46
	125.66	22.80	67.50	0.00	0.0604	10.84	476.9	395.09	0.0778	714.2	12.856	26.04	15.41	1.46
	126.64	22.82	67.50	0.00	0.0601	10.83	476.5	394.78	0.0781	715.6	12.881	26.09	15.44	1.46
	127.66	22.82	67.52	0.00	0.0601	10.82	476.3	394.49	0.0779	715.6	12.880	26.08	15.44	1.46
	128.64	22.82	67.52	0.00	0.0600	10.83	476.6	394.72	0.0779	716.6	12.898	26.11	15.46	1.47
	129.66	22.84	67.52	0.00	0.0601	10.82	476.3	394.50	0.0781	717.4	12.914	26.15	15.48	1.46
	130.64	22.82	67.50	0.00	0.0603	10.83	476.4	394.73	0.0783	717.7	12.918	26.16	15.49	1.46
