Mar 15 2018 at 10:16:25
Frequency: 1.00Hz.
CO2
Zero:  Value:0.91  Date:May 19 2009 at 7:53:33 AM
Span:  Value:1.00  Date:May 19 2009 at 8:00:06 AM
H2O
Zero:  Value:0.77  Date:May 19 2009 at 7:54:01 AM
Span:  Value:1.01  Date:28 Jun 2004	 at 08:29:05	
Light fog and low PAR _ THUNDER
	Relative Time	Temperature	Pressure	Aux Input	CO2 Absorptance	CO2 mmol/m3	CO2 mg/m3	CO2 umol/mol	H2O Absorptance	H2O mmol/m3	H2O g/m3	H2O mmol/mol	H2O(°C)	Cooler Voltage
	0.28	22.68	67.50	0.00	0.0613	11.08	487.6	403.84	0.0658	558.7	10.056	20.36	11.63	1.44
	1.30	22.68	67.52	0.00	0.0612	11.06	486.8	403.03	0.0658	559.4	10.069	20.38	11.65	1.44
	2.28	22.68	67.52	0.00	0.0610	11.05	486.0	402.33	0.0660	561.7	10.110	20.46	11.72	1.44
	3.30	22.66	67.52	0.00	0.0610	11.03	485.5	401.90	0.0662	563.3	10.140	20.52	11.76	1.44
	4.28	22.64	67.52	0.00	0.0610	11.01	484.6	401.10	0.0663	565.2	10.173	20.58	11.81	1.44
	5.28	22.68	67.52	0.00	0.0609	10.99	483.4	400.22	0.0667	569.3	10.248	20.74	11.92	1.44
	6.28	22.68	67.52	0.00	0.0607	10.95	481.7	398.82	0.0671	572.4	10.303	20.85	12.00	1.44
	7.28	22.68	67.50	0.00	0.0606	10.96	482.3	399.42	0.0672	577.3	10.392	21.04	12.13	1.44
	8.28	22.68	67.52	0.00	0.0608	10.95	481.9	398.92	0.0670	576.2	10.372	20.99	12.10	1.44
	9.28	22.68	67.50	0.00	0.0607	10.95	481.8	399.03	0.0673	577.1	10.388	21.03	12.13	1.44
	10.36	22.68	67.50	0.00	0.0606	10.92	480.7	398.06	0.0675	580.1	10.441	21.14	12.20	1.44
	11.28	22.68	67.52	0.00	0.0606	10.92	480.3	397.59	0.0678	581.9	10.474	21.20	12.25	1.44
	12.30	22.68	67.50	0.00	0.0605	10.90	479.8	397.36	0.0679	588.9	10.600	21.46	12.43	1.44
	13.28	22.66	67.50	0.00	0.0605	10.88	478.9	396.59	0.0683	590.7	10.633	21.52	12.48	1.44
	14.30	22.68	67.50	0.00	0.0605	10.89	479.2	396.87	0.0682	589.3	10.607	21.47	12.44	1.44
	15.28	22.66	67.52	0.00	0.0602	10.86	477.7	395.47	0.0687	592.7	10.668	21.59	12.53	1.44
	16.30	22.68	67.52	0.00	0.0603	10.87	478.4	396.07	0.0685	592.5	10.665	21.58	12.53	1.44
	17.28	22.68	67.52	0.00	0.0602	10.84	476.9	394.77	0.0688	596.9	10.743	21.74	12.64	1.44
	18.30	22.66	67.52	0.00	0.0601	10.84	476.8	394.67	0.0689	598.0	10.763	21.78	12.67	1.44
	19.28	22.68	67.52	0.00	0.0602	10.85	477.4	395.21	0.0691	597.4	10.753	21.76	12.65	1.44
	20.28	22.68	67.50	0.00	0.0601	10.82	476.0	394.23	0.0692	601.2	10.821	21.91	12.75	1.44
	21.28	22.68	67.52	0.00	0.0600	10.81	475.6	393.76	0.0694	603.5	10.862	21.98	12.81	1.44
	22.28	22.68	67.47	0.00	0.0602	10.83	476.4	394.66	0.0694	603.5	10.864	22.00	12.81	1.44
	23.36	22.68	67.52	0.00	0.0600	10.80	475.1	393.34	0.0696	608.1	10.946	22.15	12.92	1.44
	24.28	22.68	67.50	0.00	0.0599	10.78	474.3	392.77	0.0700	612.5	11.025	22.32	13.03	1.44
	25.30	22.72	67.50	0.00	0.0600	10.78	474.2	392.74	0.0699	611.7	11.011	22.29	13.02	1.44
	26.28	22.70	67.50	0.00	0.0599	10.77	474.0	392.58	0.0702	613.0	11.034	22.34	13.05	1.44
	27.30	22.72	67.50	0.00	0.0599	10.77	473.7	392.35	0.0702	614.4	11.059	22.39	13.08	1.44
	28.28	22.70	67.52	0.00	0.0598	10.76	473.5	392.04	0.0706	618.7	11.137	22.54	13.19	1.44
	29.30	22.68	67.50	0.00	0.0599	10.73	472.3	391.15	0.0707	621.2	11.182	22.64	13.25	1.44
	30.28	22.68	67.50	0.00	0.0597	10.72	471.5	390.47	0.0708	622.0	11.196	22.66	13.27	1.44
	31.30	22.68	67.55	0.00	0.0597	10.71	471.4	390.14	0.0710	623.6	11.226	22.71	13.31	1.44
	32.28	22.68	67.50	0.00	0.0597	10.72	471.8	390.70	0.0712	623.9	11.229	22.73	13.32	1.44
	33.28	22.68	67.50	0.00	0.0595	10.66	469.1	388.50	0.0716	633.2	11.398	23.07	13.54	1.44
	34.28	22.68	67.52	0.00	0.0593	10.63	467.9	387.31	0.0719	636.2	11.452	23.17	13.62	1.44
	35.28	22.68	67.50	0.00	0.0595	10.69	470.3	389.46	0.0716	629.7	11.335	22.95	13.46	1.44
	36.30	22.68	67.50	0.00	0.0595	10.67	469.6	388.90	0.0716	632.0	11.377	23.03	13.52	1.44
	37.28	22.68	67.50	0.00	0.0594	10.68	469.8	389.10	0.0718	630.3	11.345	22.97	13.47	1.44
	38.30	22.70	67.52	0.00	0.0594	10.66	468.9	388.20	0.0718	634.9	11.429	23.13	13.59	1.44
	39.28	22.70	67.50	0.00	0.0594	10.65	468.7	388.19	0.0719	635.5	11.439	23.16	13.60	1.44
	40.30	22.70	67.52	0.00	0.0593	10.63	467.9	387.34	0.0720	638.0	11.483	23.24	13.66	1.44
	41.28	22.70	67.47	0.00	0.0593	10.64	468.1	387.81	0.0721	636.2	11.452	23.19	13.62	1.44
	42.30	22.70	67.50	0.00	0.0593	10.63	467.6	387.32	0.0725	640.6	11.530	23.34	13.72	1.44
	43.28	22.70	67.50	0.00	0.0593	10.62	467.1	386.86	0.0725	642.4	11.563	23.41	13.77	1.44
	44.30	22.70	67.50	0.00	0.0593	10.62	467.1	386.88	0.0726	642.9	11.571	23.43	13.78	1.44
	45.28	22.70	67.52	0.00	0.0593	10.60	466.5	386.22	0.0729	648.6	11.675	23.63	13.91	1.44
	46.55	22.66	67.50	0.00	0.0591	10.59	466.0	385.94	0.0731	650.6	11.710	23.70	13.96	1.44
	47.28	22.70	67.52	0.00	0.0590	10.57	465.2	385.13	0.0732	651.2	11.722	23.72	13.98	1.45
	48.28	22.70	67.52	0.00	0.0591	10.57	464.9	384.89	0.0733	653.1	11.755	23.79	14.02	1.44
	49.28	22.68	67.50	0.00	0.0590	10.58	465.5	385.50	0.0731	651.4	11.726	23.74	13.98	1.44
	50.28	22.70	67.50	0.00	0.0590	10.54	463.6	384.00	0.0736	658.1	11.845	23.98	14.14	1.44
	51.36	22.70	67.47	0.00	0.0591	10.56	464.7	385.04	0.0734	652.4	11.744	23.78	14.00	1.44
	52.28	22.68	67.52	0.00	0.0588	10.52	462.9	383.19	0.0738	659.9	11.878	24.04	14.18	1.45
	53.30	22.70	67.52	0.00	0.0588	10.55	464.1	384.20	0.0736	657.5	11.835	23.95	14.12	1.45
	54.28	22.70	67.45	0.00	0.0588	10.54	463.6	384.23	0.0740	659.2	11.866	24.04	14.16	1.44
	55.30	22.70	67.50	0.00	0.0588	10.52	462.8	383.29	0.0739	661.6	11.909	24.11	14.22	1.45
	56.28	22.70	67.50	0.00	0.0588	10.50	462.0	382.62	0.0743	664.8	11.966	24.23	14.29	1.44
	57.30	22.70	67.50	0.00	0.0588	10.51	462.6	383.11	0.0743	665.1	11.971	24.24	14.30	1.45
	58.28	22.70	67.52	0.00	0.0588	10.52	462.8	383.13	0.0744	668.0	12.025	24.34	14.37	1.45
	59.30	22.70	67.50	0.00	0.0588	10.49	461.5	382.21	0.0744	668.8	12.039	24.37	14.39	1.45
	60.28	22.70	67.47	0.00	0.0587	10.50	462.2	382.90	0.0751	672.5	12.105	24.52	14.47	1.45
	61.30	22.66	67.50	0.00	0.0588	10.48	461.1	381.82	0.0749	673.8	12.128	24.55	14.50	1.45
	62.28	22.70	67.52	0.00	0.0587	10.47	460.8	381.51	0.0749	674.2	12.135	24.56	14.51	1.45
	63.28	22.70	67.50	0.00	0.0588	10.46	460.5	381.36	0.0749	676.6	12.179	24.66	14.57	1.45
	64.28	22.70	67.50	0.00	0.0583	10.42	458.3	379.61	0.0752	679.3	12.228	24.76	14.63	1.45
	65.28	22.70	67.50	0.00	0.0584	10.44	459.3	380.44	0.0750	677.9	12.202	24.70	14.60	1.45
	66.36	22.70	67.47	0.00	0.0584	10.43	458.9	380.20	0.0755	680.6	12.250	24.81	14.66	1.45
	67.28	22.76	67.52	0.00	0.0584	10.43	459.0	380.10	0.0756	682.9	12.292	24.88	14.71	1.45
	68.30	22.72	67.50	0.00	0.0583	10.41	458.0	379.35	0.0756	684.2	12.315	24.93	14.74	1.45
	69.28	22.70	67.52	0.00	0.0582	10.39	457.0	378.33	0.0758	687.9	12.382	25.06	14.82	1.45
	70.30	22.74	67.52	0.00	0.0583	10.43	458.8	379.93	0.0755	682.1	12.278	24.85	14.69	1.45
	71.28	22.72	67.52	0.00	0.0583	10.42	458.7	379.78	0.0760	686.8	12.362	25.02	14.80	1.45
	72.39	22.68	67.50	0.00	0.0581	10.39	457.0	378.50	0.0762	690.3	12.425	25.15	14.88	1.45
	73.28	22.72	67.52	0.00	0.0582	10.38	456.8	378.19	0.0766	694.1	12.494	25.29	14.96	1.45
	74.30	22.72	67.50	0.00	0.0583	10.38	456.8	378.34	0.0762	692.7	12.468	25.24	14.93	1.45
	75.28	22.72	67.52	0.00	0.0584	10.36	455.8	377.40	0.0763	694.2	12.496	25.29	14.97	1.45
	76.30	22.72	67.50	0.00	0.0580	10.37	456.2	377.80	0.0763	694.1	12.494	25.30	14.96	1.45
	77.36	22.70	67.50	0.00	0.0580	10.37	456.4	377.99	0.0763	693.8	12.489	25.28	14.96	1.45
	78.28	22.72	67.47	0.00	0.0581	10.36	455.7	377.59	0.0766	693.6	12.485	25.29	14.95	1.45
	79.36	22.74	67.50	0.00	0.0581	10.38	456.5	378.15	0.0766	700.2	12.604	25.52	15.10	1.45
	80.28	22.74	67.50	0.00	0.0579	10.33	454.6	376.54	0.0768	699.6	12.592	25.50	15.09	1.45
	81.30	22.74	67.50	0.00	0.0580	10.32	454.0	376.03	0.0769	702.2	12.640	25.59	15.14	1.45
	82.28	22.74	67.50	0.00	0.0578	10.30	453.3	375.49	0.0771	702.5	12.645	25.60	15.15	1.45
	83.30	22.72	67.50	0.00	0.0578	10.27	452.1	374.45	0.0771	703.9	12.670	25.65	15.18	1.45
	84.28	22.74	67.50	0.00	0.0575	10.27	451.7	374.17	0.0772	703.2	12.657	25.63	15.17	1.45
	85.30	22.74	67.52	0.00	0.0576	10.26	451.6	373.90	0.0770	703.2	12.658	25.62	15.17	1.45
	86.28	22.72	67.52	0.00	0.0576	10.26	451.4	373.77	0.0772	706.2	12.712	25.73	15.23	1.45
	87.30	22.74	67.52	0.00	0.0575	10.23	450.0	372.57	0.0773	706.0	12.707	25.72	15.23	1.45
	88.28	22.72	67.50	0.00	0.0572	10.22	449.6	372.36	0.0778	708.5	12.754	25.82	15.28	1.45
	89.30	22.74	67.50	0.00	0.0572	10.18	448.1	371.20	0.0774	709.4	12.770	25.86	15.30	1.45
	90.28	22.74	67.50	0.00	0.0574	10.17	447.7	370.81	0.0774	708.0	12.743	25.80	15.27	1.45
	91.28	22.74	67.50	0.00	0.0571	10.14	446.2	369.58	0.0779	711.5	12.807	25.93	15.35	1.45
	92.28	22.72	67.52	0.00	0.0571	10.09	444.0	367.60	0.0777	714.1	12.854	26.01	15.41	1.45
	93.28	22.74	67.50	0.00	0.0567	10.10	444.3	368.00	0.0779	712.9	12.831	25.98	15.38	1.45
	94.30	22.75	67.47	0.00	0.0567	10.06	442.7	366.86	0.0778	712.8	12.830	25.99	15.38	1.45
	95.28	22.70	67.44	0.00	0.0567	10.04	441.6	366.06	0.0776	712.2	12.820	25.98	15.36	1.45
	96.36	22.75	67.50	0.00	0.0564	9.98	439.2	363.81	0.0779	714.1	12.854	26.03	15.41	1.45
	97.28	22.74	67.52	0.00	0.0563	9.96	438.2	362.85	0.0778	712.5	12.825	25.96	15.37	1.45
	98.36	22.74	67.50	0.00	0.0561	9.93	437.0	361.96	0.0777	711.8	12.813	25.94	15.36	1.46
	99.28	22.75	67.52	0.00	0.0559	9.87	434.3	359.65	0.0781	716.1	12.890	26.09	15.45	1.46
	100.30	22.74	67.50	0.00	0.0558	9.84	432.8	358.52	0.0781	718.1	12.925	26.17	15.49	1.45
	101.28	22.76	67.50	0.00	0.0555	9.78	430.5	356.60	0.0781	717.0	12.906	26.13	15.47	1.46
	102.30	22.75	67.47	0.00	0.0551	9.75	428.8	355.35	0.0777	712.6	12.827	25.98	15.37	1.45
	103.28	22.75	67.50	0.00	0.0553	9.70	427.0	353.70	0.0778	713.0	12.834	25.99	15.38	1.45
	104.30	22.75	67.52	0.00	0.0551	9.71	427.2	353.79	0.0778	714.7	12.865	26.04	15.42	1.46
	105.28	22.72	67.52	0.00	0.0547	9.61	422.6	349.93	0.0779	715.6	12.880	26.07	15.44	1.46
	106.30	22.77	67.50	0.00	0.0545	9.56	420.4	348.31	0.0780	715.4	12.877	26.08	15.44	1.46
	107.28	22.72	67.50	0.00	0.0540	9.50	418.0	346.24	0.0778	716.3	12.893	26.10	15.45	1.46
	108.28	22.77	67.50	0.00	0.0539	9.45	415.9	344.51	0.0781	713.8	12.848	26.02	15.40	1.46
