Mar 12 2018 at 10:01:58
Frequency: 1.00Hz.
CO2
Zero:  Value:0.91  Date:May 19 2009 at 7:53:33 AM
Span:  Value:1.00  Date:May 19 2009 at 8:00:06 AM
H2O
Zero:  Value:0.77  Date:May 19 2009 at 7:54:01 AM
Span:  Value:1.01  Date:28 Jun 2004	 at 08:29:05	
third plot
	Relative Time	Temperature	Pressure	Aux Input	CO2 Absorptance	CO2 mmol/m3	CO2 mg/m3	CO2 umol/mol	H2O Absorptance	H2O mmol/m3	H2O g/m3	H2O mmol/mol	H2O(°C)	Cooler Voltage
	0.11	31.98	70.96	0.00	0.0632	11.36	500.0	406.28	0.0771	686.2	12.351	24.53	15.26	1.59
	1.11	32.03	70.96	0.00	0.0632	11.35	499.6	405.99	0.0764	680.9	12.257	24.35	15.15	1.60
	2.11	32.03	70.94	0.00	0.0634	11.39	500.9	407.23	0.0778	693.5	12.484	24.81	15.43	1.59
	3.19	32.03	70.96	0.00	0.0633	11.36	500.0	406.29	0.0771	691.3	12.444	24.72	15.38	1.59
	4.11	32.05	70.96	0.00	0.0632	11.36	500.0	406.34	0.0772	687.5	12.375	24.58	15.30	1.59
	5.12	32.02	70.96	0.00	0.0632	11.36	499.9	406.24	0.0772	688.3	12.389	24.61	15.31	1.59
	6.11	32.05	70.94	0.00	0.0631	11.35	499.5	406.06	0.0771	687.7	12.379	24.60	15.30	1.59
	7.12	32.05	70.94	0.00	0.0634	11.38	500.7	407.06	0.0788	697.7	12.559	24.96	15.53	1.59
	8.11	32.05	70.94	0.00	0.0633	11.41	502.2	408.24	0.0792	707.1	12.728	25.29	15.74	1.59
	9.12	32.05	70.96	0.00	0.0633	11.41	502.1	408.02	0.0788	707.9	12.743	25.31	15.75	1.59
	10.11	32.07	70.96	0.00	0.0633	11.37	500.3	406.64	0.0786	698.2	12.567	24.97	15.54	1.59
	11.12	32.05	70.96	0.00	0.0634	11.38	500.9	407.07	0.0786	706.5	12.718	25.26	15.72	1.60
	12.11	32.07	70.96	0.00	0.0633	11.41	501.9	407.90	0.0793	716.4	12.895	25.62	15.94	1.60
	13.11	32.02	70.94	0.00	0.0633	11.40	501.7	407.83	0.0793	716.7	12.901	25.64	15.95	1.60
	14.11	32.02	70.96	0.00	0.0634	11.42	502.3	408.20	0.0800	720.7	12.973	25.77	16.03	1.59
	15.11	32.07	70.93	0.00	0.0635	11.42	502.3	408.37	0.0798	720.5	12.969	25.78	16.03	1.60
	16.11	32.09	70.98	0.00	0.0635	11.43	502.9	408.63	0.0803	728.7	13.117	26.05	16.21	1.60
	17.11	32.09	70.96	0.00	0.0635	11.43	503.0	408.88	0.0797	729.1	13.125	26.08	16.22	1.60
	18.11	32.07	70.93	0.00	0.0636	11.46	504.4	410.06	0.0803	727.4	13.094	26.02	16.18	1.60
	19.11	32.11	70.98	0.00	0.0636	11.45	503.9	409.45	0.0805	733.8	13.209	26.24	16.32	1.60
	20.19	32.09	70.96	0.00	0.0635	11.46	504.1	409.75	0.0807	734.5	13.220	26.27	16.33	1.60
	21.11	32.09	70.96	0.00	0.0635	11.43	502.8	408.68	0.0804	726.3	13.073	25.97	16.16	1.60
	22.12	32.06	70.96	0.00	0.0635	11.44	503.3	409.03	0.0802	730.6	13.150	26.12	16.25	1.59
	23.11	32.04	70.96	0.00	0.0635	11.45	503.6	409.25	0.0802	730.5	13.149	26.12	16.25	1.60
	24.12	32.09	70.99	0.00	0.0636	11.45	503.8	409.37	0.0807	733.4	13.201	26.22	16.31	1.60
	25.11	32.09	70.96	0.00	0.0638	11.49	505.5	410.88	0.0812	741.5	13.347	26.52	16.48	1.60
	26.12	32.11	70.96	0.00	0.0635	11.48	505.0	410.47	0.0811	743.4	13.382	26.59	16.52	1.60
	27.11	32.11	70.93	0.00	0.0637	11.47	504.8	410.45	0.0812	740.6	13.331	26.50	16.46	1.60
	28.12	32.11	70.96	0.00	0.0638	11.47	504.8	410.29	0.0813	740.9	13.335	26.50	16.47	1.60
	29.11	32.11	70.94	0.00	0.0638	11.48	505.3	410.89	0.0815	745.5	13.419	26.67	16.57	1.60
	30.12	32.15	70.96	0.00	0.0637	11.47	504.6	410.24	0.0814	740.8	13.334	26.50	16.47	1.60
	31.11	32.11	70.96	0.00	0.0638	11.50	505.9	411.23	0.0819	750.1	13.502	26.83	16.67	1.60
	32.11	32.13	70.94	0.00	0.0638	11.51	506.3	411.75	0.0817	751.2	13.521	26.88	16.69	1.60
	33.11	32.13	70.96	0.00	0.0637	11.50	506.0	411.37	0.0819	752.9	13.553	26.93	16.73	1.60
	34.12	32.13	70.96	0.00	0.0639	11.51	506.3	411.57	0.0828	757.8	13.640	27.10	16.83	1.60
	35.12	32.13	70.96	0.00	0.0639	11.50	506.0	411.30	0.0827	754.0	13.572	26.97	16.75	1.60
	36.12	32.10	70.94	0.00	0.0638	11.49	505.7	411.15	0.0819	751.8	13.533	26.90	16.70	1.60
	37.12	32.15	70.96	0.00	0.0639	11.51	506.6	411.83	0.0824	758.4	13.652	27.13	16.84	1.60
	38.12	32.13	70.96	0.00	0.0639	11.53	507.2	412.34	0.0829	761.9	13.714	27.25	16.91	1.60
	39.20	32.15	70.94	0.00	0.0638	11.53	507.1	412.42	0.0830	764.4	13.760	27.35	16.97	1.60
	40.12	32.10	70.96	0.00	0.0641	11.53	507.5	412.53	0.0828	764.1	13.753	27.33	16.96	1.60
	41.14	32.17	70.96	0.00	0.0640	11.56	508.5	413.46	0.0832	765.6	13.781	27.39	16.99	1.60
	42.12	32.15	70.96	0.00	0.0639	11.53	507.5	412.60	0.0827	765.1	13.772	27.37	16.98	1.60
	43.14	32.15	70.99	0.00	0.0641	11.55	508.3	413.07	0.0828	769.2	13.846	27.51	17.06	1.60
	44.12	32.17	70.96	0.00	0.0639	11.54	507.8	412.88	0.0832	766.6	13.799	27.42	17.01	1.60
	45.14	32.17	70.96	0.00	0.0639	11.51	506.5	411.83	0.0830	760.9	13.697	27.22	16.89	1.60
	46.12	32.17	70.96	0.00	0.0641	11.55	508.2	413.19	0.0834	770.9	13.876	27.58	17.10	1.60
	47.14	32.17	70.94	0.00	0.0640	11.54	507.6	412.82	0.0831	767.3	13.812	27.46	17.03	1.60
	48.12	32.17	70.96	0.00	0.0640	11.55	508.2	413.16	0.0836	772.3	13.901	27.63	17.13	1.60
	49.12	32.17	70.96	0.00	0.0640	11.53	507.3	412.48	0.0832	768.6	13.835	27.50	17.05	1.60
	50.12	32.17	70.96	0.00	0.0640	11.54	507.9	412.92	0.0833	770.8	13.875	27.57	17.10	1.60
	51.12	32.17	70.96	0.00	0.0640	11.55	508.0	413.05	0.0835	771.7	13.891	27.61	17.12	1.60
	52.12	32.19	70.96	0.00	0.0640	11.56	508.5	413.44	0.0839	776.3	13.974	27.77	17.21	1.60
	53.12	32.17	70.93	0.00	0.0639	11.55	508.3	413.41	0.0837	775.4	13.958	27.75	17.19	1.60
	54.20	32.12	70.94	0.00	0.0642	11.55	508.4	413.39	0.0838	776.3	13.974	27.78	17.21	1.60
	55.12	32.19	70.96	0.00	0.0641	11.56	508.7	413.61	0.0842	780.4	14.048	27.92	17.29	1.60
	56.20	32.19	70.96	0.00	0.0640	11.56	508.7	413.61	0.0839	778.2	14.008	27.84	17.25	1.60
	57.12	32.19	70.96	0.00	0.0643	11.57	509.2	414.01	0.0845	783.4	14.102	28.03	17.36	1.60
	58.14	32.19	70.94	0.00	0.0641	11.58	509.5	414.40	0.0841	788.1	14.186	28.20	17.45	1.60
	59.12	32.18	70.93	0.00	0.0640	11.58	509.4	414.34	0.0842	784.3	14.118	28.07	17.37	1.60
	60.14	32.21	70.98	0.00	0.0642	11.57	509.2	413.90	0.0843	780.8	14.055	27.93	17.30	1.60
	61.12	32.21	70.91	0.00	0.0641	11.58	509.5	414.55	0.0843	783.3	14.099	28.04	17.35	1.60
	62.14	32.18	70.96	0.00	0.0641	11.58	509.4	414.14	0.0845	784.9	14.128	28.08	17.38	1.60
	63.12	32.21	70.96	0.00	0.0642	11.58	509.4	414.18	0.0847	784.1	14.113	28.05	17.37	1.60
	64.14	32.18	70.94	0.00	0.0641	11.59	509.9	414.72	0.0846	786.8	14.162	28.16	17.42	1.60
	65.12	32.18	70.93	0.00	0.0641	11.58	509.4	414.30	0.0844	785.7	14.142	28.12	17.40	1.60
	66.12	32.23	70.96	0.00	0.0641	11.60	510.3	414.96	0.0849	792.8	14.270	28.36	17.55	1.60
	67.12	32.23	70.93	0.00	0.0642	11.61	510.6	415.39	0.0852	796.8	14.342	28.52	17.62	1.60
	68.12	32.23	70.96	0.00	0.0642	11.60	510.5	415.13	0.0847	791.4	14.245	28.32	17.52	1.60
	69.12	32.23	70.94	0.00	0.0643	11.62	511.2	415.81	0.0850	799.7	14.395	28.62	17.68	1.60
	70.12	32.23	70.93	0.00	0.0643	11.62	511.3	415.91	0.0853	800.2	14.403	28.64	17.69	1.60
	71.12	32.25	70.96	0.00	0.0643	11.61	510.9	415.46	0.0852	796.6	14.340	28.51	17.62	1.60
	72.12	32.25	70.96	0.00	0.0643	11.61	510.8	415.41	0.0851	795.5	14.318	28.46	17.60	1.60
	73.20	32.25	70.91	0.00	0.0644	11.62	511.1	415.93	0.0855	797.5	14.355	28.56	17.64	1.60
	74.12	32.24	70.94	0.00	0.0645	11.64	512.1	416.55	0.0861	810.2	14.584	29.00	17.89	1.60
	75.14	32.22	70.98	0.00	0.0643	11.63	511.5	415.79	0.0856	800.3	14.405	28.62	17.69	1.60
	76.12	32.25	70.96	0.00	0.0642	11.63	511.6	416.09	0.0855	803.4	14.461	28.75	17.76	1.60
	77.14	32.22	70.94	0.00	0.0644	11.63	511.6	416.12	0.0857	801.0	14.418	28.67	17.71	1.60
	78.12	32.25	70.99	0.00	0.0644	11.64	512.2	416.39	0.0860	806.8	14.523	28.86	17.83	1.60
	79.14	32.24	70.94	0.00	0.0644	11.65	512.4	416.84	0.0859	807.7	14.539	28.91	17.84	1.60
	80.12	32.27	70.94	0.00	0.0645	11.65	512.6	417.02	0.0863	810.5	14.589	29.01	17.90	1.60
	81.12	32.27	70.99	0.00	0.0644	11.64	512.4	416.56	0.0862	808.5	14.552	28.92	17.86	1.60
	82.42	32.27	70.98	0.00	0.0645	11.66	513.0	417.07	0.0864	813.6	14.644	29.10	17.96	1.60
	83.33	32.27	70.94	0.00	0.0644	11.65	512.7	417.12	0.0865	812.5	14.625	29.08	17.94	1.60
	84.12	32.24	70.94	0.00	0.0645	11.65	512.6	417.00	0.0864	809.6	14.573	28.98	17.88	1.60
	85.12	32.29	70.96	0.00	0.0644	11.65	512.7	416.97	0.0862	810.2	14.584	29.00	17.89	1.60
	86.12	32.29	70.94	0.00	0.0645	11.65	512.5	416.98	0.0860	806.3	14.514	28.87	17.82	1.60
	87.12	32.29	70.96	0.00	0.0644	11.66	512.9	417.18	0.0862	810.5	14.588	29.00	17.90	1.60
	88.12	32.26	70.96	0.00	0.0645	11.66	513.2	417.40	0.0865	813.4	14.642	29.11	17.96	1.60
	89.12	32.29	70.96	0.00	0.0646	11.70	514.7	418.67	0.0867	819.9	14.758	29.34	18.08	1.60
	90.12	32.29	70.96	0.00	0.0645	11.68	513.9	417.99	0.0868	820.3	14.765	29.36	18.09	1.60
	91.12	32.32	70.96	0.00	0.0646	11.68	514.0	418.08	0.0871	817.0	14.706	29.24	18.03	1.60
	92.20	32.29	70.96	0.00	0.0645	11.69	514.4	418.36	0.0869	822.2	14.799	29.42	18.13	1.60
	93.12	32.31	70.93	0.00	0.0647	11.68	513.9	418.12	0.0867	817.2	14.710	29.26	18.03	1.61
	94.14	32.34	70.96	0.00	0.0647	11.70	514.6	418.62	0.0871	822.1	14.798	29.43	18.13	1.60
	95.12	32.31	70.96	0.00	0.0646	11.70	514.7	418.65	0.0869	825.1	14.851	29.53	18.18	1.60
	96.14	32.31	70.93	0.00	0.0646	11.69	514.4	418.59	0.0869	820.1	14.762	29.36	18.09	1.60
	97.12	32.31	70.93	0.00	0.0646	11.69	514.3	418.47	0.0870	821.0	14.779	29.40	18.11	1.60
	98.12	32.33	70.96	0.00	0.0647	11.70	514.9	418.86	0.0870	822.5	14.805	29.44	18.13	1.61
	99.12	32.33	70.96	0.00	0.0647	11.71	515.3	419.14	0.0873	829.4	14.929	29.69	18.27	1.61
	100.12	32.30	70.96	0.00	0.0646	11.70	515.0	418.90	0.0873	825.1	14.852	29.53	18.18	1.60
	101.12	32.34	70.98	0.00	0.0645	11.71	515.1	418.89	0.0873	829.8	14.937	29.69	18.28	1.60
	102.12	32.32	70.96	0.00	0.0647	11.71	515.2	419.08	0.0873	826.3	14.873	29.57	18.21	1.60
	103.12	32.33	70.96	0.00	0.0648	11.72	515.5	419.36	0.0880	832.7	14.989	29.81	18.33	1.60
	104.12	32.28	70.94	0.00	0.0647	11.71	515.2	419.18	0.0878	830.9	14.956	29.74	18.29	1.61
	105.12	32.35	70.96	0.00	0.0647	11.70	515.0	418.95	0.0874	827.3	14.892	29.61	18.23	1.61
	106.12	32.35	70.91	0.00	0.0646	11.71	515.2	419.39	0.0877	829.7	14.934	29.72	18.27	1.61
	107.12	32.35	70.93	0.00	0.0647	11.72	515.5	419.56	0.0878	832.7	14.988	29.82	18.33	1.61
	108.12	32.35	70.96	0.00	0.0649	11.72	515.6	419.41	0.0883	834.0	15.011	29.85	18.36	1.61
	109.20	32.40	70.93	0.00	0.0648	11.73	516.0	420.01	0.0882	836.8	15.062	29.97	18.41	1.61
	110.12	32.35	70.96	0.00	0.0647	11.73	516.0	419.78	0.0879	837.0	15.065	29.96	18.41	1.61
	111.14	32.37	70.96	0.00	0.0648	11.71	515.4	419.34	0.0878	831.4	14.965	29.76	18.31	1.61
	112.12	32.37	70.96	0.00	0.0648	11.72	515.7	419.52	0.0879	833.7	15.007	29.84	18.35	1.61
	113.14	32.37	70.94	0.00	0.0646	11.73	516.3	420.19	0.0880	841.8	15.152	30.14	18.51	1.61
	114.12	32.37	70.96	0.00	0.0647	11.73	516.0	419.79	0.0879	837.1	15.068	29.97	18.42	1.61
	115.12	32.34	70.94	0.00	0.0647	11.74	516.4	420.20	0.0883	836.0	15.047	29.93	18.39	1.61
	116.12	32.41	70.96	0.00	0.0649	11.77	517.8	421.28	0.0883	840.4	15.127	30.09	18.48	1.61
	117.12	32.37	70.96	0.00	0.0649	11.74	516.5	420.22	0.0886	842.9	15.173	30.17	18.53	1.61
	118.12	32.34	70.94	0.00	0.0648	11.74	516.7	420.48	0.0891	845.7	15.222	30.28	18.58	1.61
	119.12	32.34	70.96	0.00	0.0647	11.72	515.8	419.57	0.0882	838.0	15.085	30.00	18.43	1.61
	120.12	32.39	70.96	0.00	0.0649	11.73	516.2	420.00	0.0883	837.2	15.069	29.97	18.42	1.61
	121.12	32.39	70.94	0.00	0.0649	11.73	516.1	420.07	0.0883	839.0	15.102	30.05	18.46	1.61
	122.12	32.39	70.96	0.00	0.0650	11.75	516.8	420.53	0.0886	845.2	15.214	30.26	18.57	1.61
