Mar 12 2018 at 10:27:24
Frequency: 1.00Hz.
CO2
Zero:  Value:0.91  Date:May 19 2009 at 7:53:33 AM
Span:  Value:1.00  Date:May 19 2009 at 8:00:06 AM
H2O
Zero:  Value:0.77  Date:May 19 2009 at 7:54:01 AM
Span:  Value:1.01  Date:28 Jun 2004	 at 08:29:05	
Very bright, low wind, occasional breeze
	Relative Time	Temperature	Pressure	Aux Input	CO2 Absorptance	CO2 mmol/m3	CO2 mg/m3	CO2 umol/mol	H2O Absorptance	H2O mmol/m3	H2O g/m3	H2O mmol/mol	H2O(°C)	Cooler Voltage
	0.28	35.09	70.86	0.00	0.0632	11.38	500.6	411.47	0.0667	562.2	10.120	20.33	12.35	1.58
	1.28	35.06	70.88	0.00	0.0631	11.37	500.2	410.99	0.0674	567.1	10.208	20.50	12.49	1.58
	2.28	35.09	70.88	0.00	0.0631	11.35	499.6	410.50	0.0682	581.1	10.460	21.01	12.86	1.58
	3.27	35.09	70.88	0.00	0.0632	11.37	500.2	410.98	0.0675	570.8	10.274	20.64	12.58	1.58
	4.28	35.06	70.88	0.00	0.0632	11.36	499.8	410.61	0.0679	571.9	10.294	20.67	12.61	1.58
	5.36	35.09	70.86	0.00	0.0631	11.36	499.9	410.86	0.0682	574.8	10.347	20.79	12.69	1.58
	6.28	35.06	70.86	0.00	0.0631	11.35	499.4	410.41	0.0683	578.4	10.411	20.92	12.78	1.58
	7.30	35.06	70.86	0.00	0.0631	11.36	499.6	410.66	0.0685	580.7	10.453	21.00	12.85	1.58
	8.28	35.09	70.88	0.00	0.0631	11.35	499.5	410.45	0.0687	582.8	10.490	21.07	12.90	1.58
	9.36	35.09	70.86	0.00	0.0631	11.35	499.6	410.63	0.0688	583.8	10.509	21.12	12.93	1.58
	10.28	35.09	70.86	0.00	0.0631	11.35	499.4	410.52	0.0691	585.4	10.537	21.17	12.97	1.58
	11.28	35.09	70.83	0.00	0.0631	11.36	499.7	410.85	0.0694	592.8	10.670	21.45	13.16	1.58
	12.28	35.09	70.88	0.00	0.0632	11.37	500.2	411.02	0.0698	596.3	10.734	21.56	13.25	1.58
	13.28	35.09	70.88	0.00	0.0631	11.35	499.3	410.29	0.0696	593.8	10.688	21.47	13.19	1.58
	14.28	35.09	70.88	0.00	0.0631	11.35	499.4	410.32	0.0700	596.9	10.744	21.58	13.27	1.58
	15.28	35.09	70.88	0.00	0.0631	11.35	499.3	410.24	0.0709	608.9	10.960	22.01	13.57	1.58
	16.28	35.03	70.86	0.00	0.0631	11.35	499.6	410.56	0.0704	602.8	10.851	21.80	13.42	1.58
	17.28	35.06	70.88	0.00	0.0631	11.36	499.7	410.59	0.0705	605.1	10.892	21.88	13.48	1.58
	18.28	35.09	70.88	0.00	0.0631	11.37	500.3	411.08	0.0707	609.8	10.977	22.05	13.60	1.58
	19.28	35.09	70.88	0.00	0.0632	11.36	499.8	410.65	0.0709	609.2	10.966	22.03	13.58	1.58
	20.28	35.03	70.88	0.00	0.0631	11.35	499.5	410.33	0.0709	610.2	10.984	22.06	13.60	1.58
	21.28	35.06	70.83	0.00	0.0631	11.37	500.3	411.32	0.0714	615.2	11.074	22.26	13.73	1.58
	22.28	35.11	70.88	0.00	0.0632	11.36	500.0	410.88	0.0716	616.4	11.094	22.29	13.76	1.58
	23.28	35.11	70.86	0.00	0.0632	11.37	500.4	411.34	0.0716	620.6	11.171	22.45	13.87	1.58
	24.28	35.09	70.88	0.00	0.0632	11.36	499.8	410.69	0.0717	619.1	11.143	22.38	13.83	1.58
	25.28	35.08	70.83	0.00	0.0632	11.37	500.2	411.31	0.0718	622.8	11.210	22.53	13.92	1.58
	26.28	35.11	70.86	0.00	0.0631	11.35	499.6	410.70	0.0718	620.5	11.169	22.44	13.86	1.58
	27.28	35.11	70.88	0.00	0.0631	11.36	499.6	410.58	0.0719	625.5	11.259	22.62	13.99	1.58
	28.28	35.11	70.86	0.00	0.0631	11.37	500.3	411.30	0.0725	628.0	11.304	22.71	14.05	1.58
	29.28	35.11	70.88	0.00	0.0633	11.36	500.0	410.91	0.0725	628.1	11.305	22.71	14.05	1.58
	30.28	35.11	70.91	0.00	0.0632	11.36	499.9	410.68	0.0725	629.1	11.323	22.74	14.08	1.58
	31.28	35.06	70.86	0.00	0.0632	11.37	500.1	411.07	0.0728	632.5	11.386	22.88	14.16	1.58
	32.28	35.06	70.86	0.00	0.0631	11.37	500.1	411.00	0.0728	632.4	11.384	22.87	14.16	1.58
	33.28	35.09	70.86	0.00	0.0632	11.37	500.1	411.05	0.0731	635.0	11.429	22.96	14.22	1.58
	34.28	35.11	70.88	0.00	0.0632	11.37	500.2	411.00	0.0733	636.5	11.456	23.01	14.26	1.58
	35.28	35.11	70.88	0.00	0.0632	11.37	500.2	411.08	0.0734	639.4	11.508	23.12	14.33	1.58
	36.28	35.08	70.86	0.00	0.0633	11.38	500.7	411.55	0.0735	641.8	11.552	23.21	14.38	1.58
	37.28	35.08	70.86	0.00	0.0632	11.38	500.7	411.56	0.0738	646.5	11.637	23.38	14.50	1.58
	38.28	35.11	70.91	0.00	0.0632	11.37	500.5	411.14	0.0735	642.5	11.565	23.22	14.40	1.58
	39.28	35.11	70.86	0.00	0.0633	11.38	500.9	411.77	0.0741	648.0	11.665	23.44	14.53	1.58
	40.28	35.11	70.83	0.00	0.0633	11.40	501.6	412.50	0.0741	651.2	11.721	23.56	14.61	1.58
	41.30	35.11	70.86	249.90	0.0634	11.40	501.5	412.28	0.0748	656.5	11.818	23.75	14.74	1.58
	42.28	35.13	70.91	0.00	0.0632	11.39	501.2	411.71	0.0744	652.4	11.743	23.58	14.64	1.58
	43.28	35.11	70.83	0.00	0.0633	11.40	501.5	412.42	0.0750	659.2	11.865	23.85	14.80	1.58
	44.28	35.13	70.88	0.00	0.0633	11.40	501.5	412.16	0.0750	658.8	11.858	23.82	14.79	1.58
	45.28	35.08	70.83	0.00	0.0634	11.42	502.4	413.06	0.0750	661.5	11.907	23.93	14.85	1.58
	46.28	35.11	70.86	0.00	0.0633	11.41	502.0	412.70	0.0749	664.4	11.958	24.03	14.92	1.58
	47.28	35.11	70.86	0.00	0.0634	11.40	501.6	412.36	0.0750	660.7	11.892	23.90	14.83	1.58
	48.36	35.11	70.86	0.00	0.0634	11.41	501.9	412.57	0.0753	664.2	11.956	24.02	14.92	1.58
	49.28	35.11	70.88	0.00	0.0634	11.41	502.0	412.48	0.0756	667.1	12.008	24.12	14.98	1.58
	50.28	35.08	70.86	0.00	0.0633	11.41	502.1	412.70	0.0756	667.5	12.014	24.14	14.99	1.58
	51.28	35.08	70.86	0.00	0.0633	11.41	502.1	412.74	0.0761	672.3	12.101	24.31	15.10	1.58
	52.28	35.13	70.88	0.00	0.0634	11.41	502.1	412.62	0.0757	669.2	12.046	24.20	15.04	1.58
	53.28	35.13	70.86	0.00	0.0634	11.42	502.5	413.10	0.0760	674.9	12.148	24.41	15.17	1.58
	54.28	35.11	70.86	0.00	0.0635	11.42	502.5	413.08	0.0764	676.0	12.167	24.45	15.19	1.58
	55.28	35.08	70.83	0.00	0.0633	11.42	502.3	413.01	0.0761	675.8	12.165	24.45	15.19	1.58
	56.28	35.08	70.88	0.00	0.0634	11.42	502.5	412.92	0.0761	675.6	12.160	24.42	15.18	1.58
	57.28	35.08	70.88	0.00	0.0635	11.44	503.6	413.77	0.0769	684.3	12.318	24.74	15.38	1.58
	58.30	35.11	70.86	0.00	0.0634	11.44	503.3	413.75	0.0767	684.1	12.313	24.74	15.38	1.58
	59.28	35.11	70.86	0.00	0.0634	11.42	502.7	413.22	0.0767	682.6	12.286	24.69	15.34	1.58
	60.30	35.11	70.88	0.00	0.0635	11.43	503.1	413.43	0.0769	688.3	12.389	24.89	15.47	1.58
	61.28	35.11	70.88	0.00	0.0634	11.43	502.9	413.22	0.0770	684.3	12.317	24.74	15.38	1.58
	62.30	35.11	70.88	0.00	0.0636	11.43	503.1	413.45	0.0771	686.9	12.364	24.84	15.44	1.58
	63.28	35.08	70.86	0.00	0.0635	11.44	503.6	413.92	0.0773	689.4	12.409	24.93	15.49	1.58
	64.30	35.11	70.88	0.00	0.0635	11.45	503.8	413.99	0.0774	691.3	12.443	24.99	15.54	1.59
	65.28	35.08	70.88	0.00	0.0635	11.44	503.5	413.74	0.0775	692.1	12.458	25.02	15.56	1.58
	66.30	35.08	70.86	0.00	0.0635	11.45	503.8	414.12	0.0775	693.9	12.491	25.10	15.60	1.58
	67.28	35.08	70.88	0.00	0.0636	11.45	503.6	413.81	0.0777	693.5	12.482	25.07	15.59	1.58
	68.30	35.08	70.88	0.00	0.0635	11.45	503.6	413.81	0.0776	694.2	12.495	25.10	15.60	1.58
	69.28	35.13	70.86	0.00	0.0637	11.46	504.3	414.59	0.0778	697.2	12.549	25.22	15.67	1.58
	70.30	35.14	70.86	0.00	0.0635	11.45	503.7	414.11	0.0777	696.4	12.535	25.19	15.66	1.59
	71.28	35.08	70.86	0.00	0.0635	11.45	503.7	413.98	0.0778	696.0	12.528	25.17	15.64	1.58
	72.30	35.13	70.86	0.00	0.0636	11.46	504.1	414.40	0.0779	698.4	12.571	25.26	15.70	1.58
	73.28	35.11	70.88	0.00	0.0635	11.45	504.0	414.13	0.0780	699.4	12.589	25.29	15.72	1.58
	74.30	35.10	70.88	0.00	0.0635	11.46	504.1	414.25	0.0781	700.5	12.610	25.33	15.75	1.58
	75.28	35.11	70.86	0.00	0.0636	11.47	504.7	414.86	0.0783	703.1	12.656	25.43	15.80	1.59
	76.30	35.11	70.86	0.00	0.0636	11.47	504.7	414.89	0.0783	704.8	12.687	25.49	15.84	1.59
	77.28	35.13	70.86	0.00	0.0638	11.47	504.7	414.92	0.0785	705.2	12.694	25.51	15.85	1.58
	78.30	35.13	70.86	0.00	0.0637	11.48	505.1	415.23	0.0787	707.6	12.737	25.60	15.91	1.58
	79.28	35.13	70.88	0.00	0.0637	11.47	504.9	414.91	0.0786	707.6	12.736	25.59	15.90	1.58
	80.28	35.11	70.88	0.00	0.0637	11.47	504.8	414.81	0.0787	707.5	12.735	25.58	15.90	1.58
	81.28	35.11	70.86	0.00	0.0637	11.49	505.7	415.71	0.0788	712.0	12.817	25.76	16.00	1.59
	82.28	35.08	70.86	0.00	0.0637	11.48	505.1	415.15	0.0789	711.3	12.804	25.73	15.98	1.59
	83.28	35.11	70.86	0.00	0.0637	11.49	505.4	415.44	0.0791	712.8	12.830	25.78	16.02	1.58
	84.28	35.08	70.88	0.00	0.0637	11.49	505.5	415.35	0.0792	715.8	12.884	25.88	16.08	1.58
	85.28	35.08	70.86	0.00	0.0637	11.49	505.7	415.66	0.0792	715.5	12.879	25.88	16.08	1.58
	86.28	35.08	70.90	0.00	0.0637	11.49	505.6	415.34	0.0793	717.2	12.910	25.92	16.11	1.58
	87.28	35.13	70.86	0.00	0.0638	11.50	506.1	416.06	0.0795	718.9	12.940	26.00	16.15	1.59
	88.28	35.13	70.86	250.00	0.0638	11.51	506.6	416.48	0.0797	721.0	12.978	26.08	16.20	1.59
	89.28	35.10	70.83	0.00	0.0638	11.52	506.8	416.76	0.0797	721.9	12.995	26.12	16.22	1.58
	90.28	35.13	70.86	0.00	0.0637	11.51	506.4	416.35	0.0797	722.5	13.005	26.14	16.23	1.58
	91.28	35.13	70.86	0.00	0.0637	11.50	506.1	416.04	0.0797	721.6	12.989	26.10	16.21	1.58
	92.28	35.13	70.83	0.00	0.0638	11.51	506.4	416.42	0.0800	724.7	13.044	26.22	16.28	1.59
	93.28	35.13	70.88	0.00	0.0638	11.52	506.9	416.56	0.0800	727.1	13.088	26.29	16.33	1.59
	94.28	35.13	70.81	0.00	0.0638	11.51	506.5	416.65	0.0801	725.9	13.066	26.28	16.30	1.59
	95.28	35.08	70.86	0.00	0.0639	11.53	507.5	417.11	0.0802	730.0	13.141	26.40	16.39	1.58
	96.28	35.11	70.88	0.00	0.0639	11.52	506.9	416.53	0.0802	727.4	13.093	26.30	16.34	1.59
	97.28	35.10	70.86	0.00	0.0639	11.53	507.5	417.16	0.0805	729.6	13.133	26.39	16.38	1.59
	98.28	35.10	70.88	0.00	0.0639	11.54	507.7	417.18	0.0804	732.1	13.178	26.47	16.44	1.59
	99.36	35.13	70.86	0.00	0.0639	11.54	507.6	417.29	0.0804	731.7	13.171	26.47	16.43	1.59
	100.28	35.13	70.88	0.00	0.0639	11.54	507.6	417.12	0.0806	733.3	13.200	26.52	16.46	1.59
	101.28	35.13	70.86	0.00	0.0639	11.54	507.7	417.36	0.0807	735.3	13.235	26.60	16.51	1.59
	102.28	35.13	70.86	0.00	0.0640	11.55	508.4	417.96	0.0810	740.1	13.322	26.77	16.61	1.59
	103.28	35.15	70.86	0.00	0.0640	11.56	508.5	418.07	0.0811	740.0	13.321	26.77	16.61	1.59
	104.28	35.13	70.86	0.00	0.0640	11.56	508.7	418.25	0.0811	741.4	13.345	26.82	16.64	1.59
	105.28	35.13	70.86	0.00	0.0640	11.56	508.7	418.25	0.0811	741.3	13.344	26.82	16.64	1.59
	106.28	35.10	70.86	0.00	0.0641	11.56	508.5	417.97	0.0813	740.2	13.323	26.77	16.61	1.59
	107.36	35.13	70.86	0.00	0.0641	11.56	508.6	418.10	0.0814	742.5	13.364	26.86	16.66	1.59
	108.28	35.10	70.88	0.00	0.0640	11.57	509.2	418.42	0.0814	744.7	13.404	26.92	16.70	1.59
	109.36	35.13	70.83	0.00	0.0640	11.56	508.6	418.25	0.0815	742.8	13.370	26.88	16.67	1.59
	110.28	35.13	70.83	0.00	0.0639	11.56	508.5	418.19	0.0811	742.0	13.357	26.85	16.65	1.59
	111.30	35.12	70.83	0.00	0.0641	11.57	508.9	418.50	0.0813	744.7	13.405	26.95	16.71	1.59
	112.28	35.10	70.88	0.00	0.0640	11.57	509.1	418.30	0.0815	746.3	13.434	26.98	16.74	1.59
	113.30	35.13	70.86	0.00	0.0641	11.57	509.0	418.47	0.0816	746.7	13.440	27.01	16.75	1.59
	114.28	35.10	70.88	0.00	0.0640	11.57	509.2	418.46	0.0817	748.3	13.470	27.06	16.78	1.59
	115.30	35.10	70.86	0.00	0.0641	11.57	509.3	418.65	0.0817	748.5	13.473	27.07	16.79	1.59
	116.28	35.15	70.88	0.00	0.0641	11.58	509.4	418.69	0.0818	748.4	13.472	27.07	16.79	1.59
	117.30	35.13	70.88	0.00	0.0641	11.58	509.6	418.79	0.0818	750.5	13.508	27.14	16.83	1.59
	118.28	35.10	70.86	0.00	0.0641	11.58	509.4	418.70	0.0817	749.1	13.484	27.09	16.80	1.59
	119.30	35.10	70.86	0.00	0.0640	11.58	509.5	418.79	0.0818	750.2	13.504	27.14	16.82	1.59
	120.28	35.13	70.86	0.00	0.0642	11.59	510.0	419.24	0.0820	752.9	13.553	27.24	16.88	1.59
	121.30	35.13	70.88	0.00	0.0642	11.60	510.3	419.41	0.0823	755.0	13.590	27.30	16.92	1.59
	122.28	35.16	70.88	0.00	0.0642	11.60	510.5	419.54	0.0822	756.2	13.612	27.35	16.95	1.59
	123.30	35.10	70.86	0.00	0.0642	11.59	510.1	419.30	0.0824	756.7	13.621	27.37	16.96	1.59
	124.30	35.10	70.91	0.00	0.0641	11.59	510.1	419.00	0.0821	755.0	13.591	27.29	16.92	1.59
	125.30	35.08	70.86	0.00	0.0642	11.60	510.2	419.41	0.0822	755.7	13.602	27.33	16.93	1.59
	126.28	35.10	70.86	0.00	0.0641	11.59	510.0	419.27	0.0822	755.6	13.602	27.33	16.93	1.59
	127.30	35.10	70.86	0.00	0.0641	11.60	510.3	419.51	0.0823	757.6	13.637	27.40	16.98	1.59
	128.28	35.13	70.86	0.00	0.0642	11.60	510.4	419.57	0.0824	757.2	13.630	27.39	16.97	1.59
	129.30	35.17	70.86	0.00	0.0642	11.60	510.4	419.67	0.0824	758.1	13.645	27.43	16.99	1.59
	130.28	35.21	70.90	0.00	0.0642	11.60	510.5	419.52	0.0825	759.3	13.667	27.45	17.02	1.59
	131.30	35.12	70.86	0.00	0.0642	11.61	510.6	419.78	0.0826	760.1	13.682	27.49	17.03	1.59
	132.28	35.12	70.86	0.00	0.0642	11.61	510.7	419.80	0.0826	760.0	13.680	27.49	17.03	1.59
	133.30	35.15	70.86	0.00	0.0642	11.61	510.7	419.87	0.0825	760.0	13.679	27.49	17.03	1.59
	134.28	35.13	70.88	0.00	0.0643	11.61	510.9	419.90	0.0828	763.1	13.736	27.59	17.09	1.59
	135.30	35.13	70.86	0.00	0.0643	11.61	510.8	419.93	0.0827	761.6	13.709	27.55	17.06	1.59
	136.28	35.10	70.86	0.00	0.0643	11.62	511.4	420.35	0.0830	766.6	13.799	27.73	17.16	1.59
	137.30	35.15	70.86	0.00	0.0642	11.62	511.1	420.22	0.0828	763.6	13.746	27.62	17.10	1.59
	138.28	35.10	70.86	0.00	0.0643	11.62	511.3	420.34	0.0829	764.3	13.757	27.64	17.11	1.59
	139.30	35.15	70.86	0.00	0.0643	11.62	511.4	420.46	0.0829	765.0	13.771	27.68	17.13	1.59
	140.28	35.13	70.86	0.00	0.0643	11.63	511.7	420.69	0.0829	766.8	13.802	27.74	17.17	1.59
	141.30	35.15	70.86	0.00	0.0643	11.63	511.7	420.70	0.0831	766.8	13.803	27.74	17.17	1.59
