Mar 12 2018 at 10:15:16
Frequency: 1.00Hz.
CO2
Zero:  Value:0.91  Date:May 19 2009 at 7:53:33 AM
Span:  Value:1.00  Date:May 19 2009 at 8:00:06 AM
H2O
Zero:  Value:0.77  Date:May 19 2009 at 7:54:01 AM
Span:  Value:1.01  Date:28 Jun 2004	 at 08:29:05	
fourth plot
	Relative Time	Temperature	Pressure	Aux Input	CO2 Absorptance	CO2 mmol/m3	CO2 mg/m3	CO2 umol/mol	H2O Absorptance	H2O mmol/m3	H2O g/m3	H2O mmol/mol	H2O(°C)	Cooler Voltage
	0.66	34.40	70.91	0.00	0.0636	11.44	503.5	412.64	0.0731	639.0	11.501	23.04	14.28	1.61
	1.67	34.42	70.88	0.00	0.0636	11.46	504.1	413.31	0.0734	635.3	11.436	22.92	14.19	1.61
	2.66	34.42	70.91	0.00	0.0636	11.46	504.1	413.13	0.0731	636.4	11.456	22.95	14.22	1.61
	3.67	34.39	70.93	0.00	0.0635	11.45	503.8	412.73	0.0735	641.6	11.548	23.13	14.34	1.61
	4.75	34.42	70.91	0.00	0.0636	11.45	503.8	412.96	0.0735	643.1	11.575	23.19	14.38	1.61
	5.67	34.42	70.91	0.00	0.0636	11.45	503.9	413.04	0.0733	640.5	11.528	23.10	14.32	1.61
	6.67	34.45	70.88	0.00	0.0636	11.45	504.0	413.27	0.0741	644.8	11.606	23.26	14.42	1.61
	7.66	34.39	70.88	0.00	0.0636	11.46	504.2	413.39	0.0740	647.7	11.658	23.36	14.49	1.61
	8.67	34.42	70.91	0.00	0.0636	11.46	504.3	413.34	0.0741	650.0	11.701	23.44	14.55	1.61
	9.66	34.42	70.91	0.00	0.0636	11.45	504.0	413.07	0.0742	650.9	11.717	23.47	14.57	1.61
	10.67	34.39	70.91	0.00	0.0636	11.46	504.1	413.09	0.0745	654.5	11.781	23.60	14.65	1.61
	11.66	34.39	70.91	0.00	0.0636	11.46	504.1	413.16	0.0748	655.1	11.793	23.62	14.67	1.61
	12.67	34.41	70.91	0.00	0.0637	11.47	504.8	413.72	0.0747	655.7	11.802	23.64	14.68	1.61
	13.66	34.41	70.91	0.00	0.0637	11.47	504.8	413.72	0.0748	659.3	11.867	23.77	14.77	1.61
	14.67	34.44	70.91	0.00	0.0637	11.49	505.4	414.23	0.0752	664.5	11.961	23.97	14.89	1.61
	15.66	34.44	70.91	0.00	0.0636	11.47	504.7	413.69	0.0749	660.4	11.887	23.82	14.79	1.61
	16.67	34.44	70.91	0.00	0.0637	11.48	505.0	413.96	0.0754	664.6	11.963	23.97	14.89	1.61
	17.73	34.44	70.91	0.00	0.0636	11.48	505.0	413.93	0.0752	662.7	11.928	23.90	14.85	1.61
	18.67	34.44	70.91	0.00	0.0637	11.48	505.0	413.93	0.0753	663.1	11.935	23.91	14.86	1.61
	19.67	34.44	70.91	0.00	0.0637	11.48	505.3	414.20	0.0752	664.1	11.954	23.95	14.88	1.61
	20.67	34.44	70.88	0.00	0.0637	11.49	505.6	414.61	0.0756	668.9	12.040	24.13	14.99	1.61
	21.67	34.44	70.88	0.00	0.0637	11.49	505.5	414.50	0.0755	665.4	11.977	24.01	14.91	1.61
	22.66	34.46	70.91	0.00	0.0638	11.49	505.3	414.26	0.0756	667.0	12.006	24.06	14.95	1.61
	23.67	34.46	70.88	0.00	0.0638	11.51	506.3	415.21	0.0758	671.0	12.077	24.21	15.04	1.61
	24.66	34.46	70.91	0.00	0.0637	11.50	505.9	414.67	0.0760	673.3	12.120	24.28	15.10	1.61
	25.67	34.46	70.91	0.00	0.0638	11.50	506.2	414.94	0.0761	675.0	12.149	24.34	15.13	1.61
	26.66	34.46	70.91	0.00	0.0638	11.51	506.4	415.14	0.0764	678.3	12.210	24.47	15.21	1.61
	27.67	34.43	70.88	0.00	0.0638	11.51	506.6	415.36	0.0757	673.1	12.116	24.28	15.09	1.61
	28.66	34.50	70.91	0.00	0.0639	11.52	506.7	415.40	0.0764	676.3	12.173	24.40	15.17	1.61
	29.67	34.46	70.91	0.00	0.0638	11.51	506.6	415.27	0.0763	676.7	12.181	24.41	15.17	1.61
	30.73	34.48	70.91	0.00	0.0639	11.52	507.1	415.68	0.0765	679.9	12.238	24.52	15.25	1.61
	31.67	34.48	70.91	0.00	0.0638	11.52	507.0	415.58	0.0767	680.8	12.255	24.56	15.27	1.61
	32.67	34.48	70.89	0.00	0.0639	11.53	507.4	416.13	0.0768	684.2	12.316	24.69	15.35	1.61
	33.67	34.48	70.88	0.00	0.0639	11.53	507.3	416.05	0.0767	675.9	12.167	24.39	15.16	1.61
	34.67	34.45	70.88	0.00	0.0639	11.54	507.8	416.41	0.0765	685.2	12.333	24.72	15.37	1.61
	35.67	34.45	70.91	0.00	0.0639	11.53	507.5	415.98	0.0768	684.2	12.316	24.68	15.35	1.61
	36.67	34.45	70.91	0.00	0.0639	11.53	507.5	416.01	0.0769	685.8	12.344	24.73	15.38	1.61
	37.66	34.48	70.91	0.00	0.0639	11.53	507.5	416.04	0.0771	683.5	12.303	24.65	15.33	1.61
	38.67	34.48	70.91	0.00	0.0640	11.53	507.5	416.01	0.0772	687.8	12.381	24.81	15.43	1.61
	39.66	34.42	70.91	0.00	0.0639	11.55	508.0	416.37	0.0775	693.1	12.476	25.00	15.55	1.61
	40.67	34.48	70.88	0.00	0.0639	11.53	507.2	415.98	0.0771	686.7	12.361	24.78	15.40	1.61
	41.66	34.50	70.91	0.00	0.0639	11.54	507.7	416.27	0.0777	693.9	12.490	25.03	15.57	1.61
	42.67	34.50	70.91	0.00	0.0640	11.56	508.5	416.86	0.0778	696.2	12.532	25.12	15.62	1.61
	43.67	34.50	70.88	0.00	0.0640	11.55	508.4	416.94	0.0780	700.3	12.605	25.27	15.71	1.61
	44.67	34.50	70.91	0.00	0.0640	11.55	508.0	416.46	0.0778	693.2	12.478	25.01	15.55	1.61
	45.67	34.50	70.91	0.00	0.0640	11.56	508.8	417.11	0.0782	702.5	12.645	25.34	15.76	1.61
	46.67	34.53	70.88	0.00	0.0641	11.56	508.5	417.09	0.0783	702.8	12.650	25.36	15.77	1.61
	47.67	34.50	70.91	0.00	0.0641	11.57	509.2	417.42	0.0785	704.3	12.678	25.41	15.80	1.61
	48.67	34.50	70.91	0.00	0.0641	11.57	509.1	417.35	0.0785	704.6	12.683	25.42	15.81	1.61
	49.67	34.47	70.88	0.00	0.0640	11.56	508.8	417.22	0.0784	704.1	12.674	25.40	15.79	1.61
	50.67	34.53	70.91	0.00	0.0641	11.57	509.2	417.48	0.0791	708.8	12.759	25.57	15.90	1.61
	51.67	34.50	70.91	0.00	0.0641	11.57	509.0	417.30	0.0788	709.0	12.762	25.57	15.90	1.61
	52.66	34.50	70.88	0.00	0.0641	11.58	509.3	417.70	0.0788	707.7	12.738	25.54	15.87	1.61
	53.67	34.53	70.96	0.00	0.0641	11.58	509.6	417.50	0.0788	710.5	12.789	25.61	15.94	1.61
	54.66	34.50	70.91	0.00	0.0641	11.57	509.3	417.51	0.0783	708.8	12.759	25.57	15.90	1.61
	55.67	34.53	70.91	0.00	0.0641	11.58	509.5	417.74	0.0789	709.9	12.778	25.61	15.92	1.61
	56.73	34.55	70.88	0.00	0.0641	11.58	509.4	417.82	0.0790	712.3	12.821	25.71	15.98	1.61
	57.67	34.55	70.91	0.00	0.0641	11.58	509.4	417.71	0.0787	712.0	12.816	25.69	15.97	1.61
	58.67	34.55	70.91	0.00	0.0641	11.58	509.5	417.78	0.0790	712.1	12.819	25.69	15.98	1.61
	59.67	34.55	70.91	0.00	0.0641	11.58	509.6	417.88	0.0793	716.4	12.895	25.85	16.07	1.61
	60.67	34.55	70.91	0.00	0.0642	11.59	509.8	417.98	0.0792	716.4	12.896	25.85	16.07	1.61
	61.67	34.52	70.91	0.00	0.0642	11.59	509.9	418.04	0.0795	718.6	12.934	25.92	16.11	1.61
	62.67	34.52	70.91	0.00	0.0642	11.59	510.1	418.21	0.0796	720.8	12.974	26.00	16.16	1.61
	63.67	34.52	70.91	0.00	0.0641	11.59	510.0	418.10	0.0796	721.1	12.979	26.01	16.17	1.61
	64.67	34.55	70.88	0.00	0.0641	11.60	510.3	418.56	0.0798	723.7	13.027	26.12	16.23	1.61
	65.66	34.55	70.91	0.00	0.0642	11.60	510.4	418.51	0.0798	724.5	13.041	26.14	16.24	1.62
	66.67	34.50	70.88	0.00	0.0642	11.59	510.1	418.37	0.0799	724.0	13.032	26.13	16.23	1.61
	67.75	34.55	70.91	0.00	0.0642	11.61	510.9	418.95	0.0801	730.2	13.144	26.35	16.37	1.61
	68.67	34.57	70.91	0.00	0.0642	11.60	510.5	418.61	0.0799	726.7	13.080	26.22	16.29	1.61
	69.75	34.57	70.88	0.00	0.0643	11.60	510.6	418.84	0.0802	728.8	13.119	26.31	16.34	1.61
	70.67	34.57	70.91	0.00	0.0642	11.61	510.7	418.78	0.0803	728.6	13.116	26.29	16.34	1.61
	71.67	34.54	70.91	0.00	0.0643	11.62	511.2	419.17	0.0803	730.8	13.154	26.36	16.38	1.62
	72.67	34.57	70.91	0.00	0.0642	11.61	510.7	418.76	0.0803	729.7	13.135	26.33	16.36	1.61
	73.67	34.57	70.91	0.00	0.0643	11.62	511.1	419.13	0.0806	731.3	13.164	26.39	16.39	1.61
	74.67	34.57	70.91	0.00	0.0643	11.62	511.3	419.24	0.0807	732.7	13.189	26.44	16.42	1.61
	75.67	34.59	70.88	0.00	0.0643	11.62	511.5	419.59	0.0808	735.6	13.241	26.55	16.49	1.61
	76.67	34.54	70.91	0.00	0.0642	11.61	510.9	418.90	0.0804	729.5	13.131	26.32	16.35	1.61
	77.67	34.59	70.91	0.00	0.0643	11.62	511.1	419.17	0.0808	735.5	13.239	26.54	16.48	1.62
	78.67	34.59	70.91	0.00	0.0643	11.62	511.4	419.36	0.0809	738.1	13.285	26.63	16.54	1.61
	79.67	34.59	70.91	0.00	0.0643	11.62	511.3	419.27	0.0810	738.4	13.291	26.64	16.54	1.61
	80.66	34.56	70.88	0.00	0.0643	11.62	511.5	419.56	0.0804	734.3	13.217	26.50	16.46	1.61
	81.67	34.59	70.88	0.00	0.0644	11.63	511.8	419.89	0.0811	740.6	13.331	26.73	16.59	1.61
	82.75	34.59	70.91	0.00	0.0644	11.64	511.9	419.83	0.0813	741.5	13.347	26.76	16.61	1.61
	83.67	34.61	70.91	0.00	0.0644	11.63	511.7	419.69	0.0809	737.6	13.277	26.62	16.53	1.62
	84.67	34.61	70.91	0.00	0.0643	11.63	511.7	419.69	0.0811	740.7	13.332	26.73	16.59	1.61
	85.67	34.61	70.88	0.00	0.0644	11.63	511.9	419.98	0.0813	741.8	13.352	26.78	16.62	1.61
	86.67	34.63	70.91	0.00	0.0644	11.65	512.4	420.30	0.0815	745.9	13.426	26.92	16.71	1.61
	87.67	34.61	70.86	0.00	0.0644	11.65	512.5	420.64	0.0817	747.5	13.455	26.99	16.74	1.61
	88.67	34.61	70.88	0.00	0.0644	11.65	512.5	420.45	0.0820	750.1	13.501	27.08	16.79	1.61
	92.77	34.58	70.91	0.00	0.0644	11.66	512.8	420.55	0.0818	751.5	13.527	27.11	16.82	1.62
	92.80	34.60	70.91	0.00	0.0645	11.65	512.7	420.51	0.0821	751.7	13.531	27.12	16.83	1.61
	92.80	34.61	70.91	0.00	0.0644	11.65	512.6	420.38	0.0820	750.9	13.516	27.10	16.81	1.61
	92.80	34.60	70.91	0.00	0.0644	11.65	512.6	420.35	0.0820	751.7	13.531	27.13	16.83	1.61
	93.69	34.61	70.91	0.00	0.0644	11.65	512.4	420.25	0.0817	748.4	13.471	27.01	16.76	1.61
	94.69	34.58	70.88	0.00	0.0645	11.66	512.8	420.70	0.0820	752.3	13.541	27.15	16.84	1.62
	95.67	34.63	70.91	0.00	0.0644	11.65	512.7	420.52	0.0817	751.5	13.527	27.12	16.82	1.62
	96.69	34.60	70.91	0.00	0.0644	11.65	512.8	420.53	0.0820	752.8	13.551	27.17	16.85	1.61
	97.77	34.60	70.88	0.00	0.0644	11.65	512.8	420.70	0.0822	754.3	13.577	27.23	16.88	1.61
	98.69	34.63	70.91	0.00	0.0644	11.65	512.8	420.56	0.0821	753.5	13.563	27.19	16.87	1.62
	99.69	34.65	70.91	0.00	0.0645	11.66	512.9	420.72	0.0822	755.2	13.594	27.26	16.90	1.61
	100.69	34.63	70.91	0.00	0.0645	11.66	513.1	420.80	0.0822	754.4	13.580	27.23	16.89	1.62
	101.69	34.60	70.91	0.00	0.0645	11.66	513.0	420.68	0.0824	758.0	13.645	27.35	16.96	1.62
	102.69	34.65	70.96	0.00	0.0645	11.67	513.4	420.81	0.0825	760.0	13.680	27.41	17.00	1.61
	103.69	34.60	70.91	0.00	0.0645	11.66	513.1	420.77	0.0826	758.2	13.647	27.36	16.96	1.62
	104.69	34.63	70.93	0.00	0.0646	11.68	513.9	421.34	0.0828	762.9	13.732	27.52	17.06	1.62
	105.69	34.62	70.91	0.00	0.0645	11.67	513.5	421.17	0.0827	761.0	13.699	27.46	17.02	1.62
	106.77	34.60	70.91	0.00	0.0645	11.67	513.7	421.26	0.0827	763.4	13.741	27.55	17.07	1.62
	107.69	34.65	70.91	0.00	0.0645	11.67	513.7	421.34	0.0827	764.4	13.760	27.59	17.09	1.62
	108.77	34.62	70.88	0.00	0.0645	11.68	513.7	421.46	0.0827	762.6	13.727	27.53	17.05	1.62
	109.69	34.65	70.88	0.00	0.0645	11.68	513.8	421.59	0.0828	763.5	13.743	27.56	17.07	1.62
	110.69	34.68	70.88	0.00	0.0645	11.68	513.7	421.53	0.0829	763.9	13.750	27.58	17.08	1.62
	111.69	34.68	70.91	0.00	0.0645	11.67	513.7	421.36	0.0829	763.9	13.749	27.57	17.08	1.62
	112.69	34.68	70.91	0.00	0.0646	11.69	514.5	422.05	0.0830	769.3	13.848	27.77	17.20	1.62
	113.70	34.70	70.91	250.00	0.0646	11.68	514.0	421.64	0.0832	765.6	13.781	27.64	17.12	1.62
	114.69	34.68	70.91	0.00	0.0645	11.69	514.4	421.92	0.0834	771.4	13.885	27.84	17.24	1.62
	115.69	34.68	70.88	0.00	0.0645	11.66	513.2	421.15	0.0829	768.5	13.833	27.75	17.18	1.62
	116.69	34.68	70.88	0.00	0.0646	11.69	514.4	422.09	0.0834	770.7	13.872	27.83	17.22	1.62
	117.69	34.68	70.88	0.00	0.0646	11.70	514.6	422.26	0.0835	771.6	13.889	27.86	17.24	1.62
	118.69	34.68	70.88	0.00	0.0647	11.70	514.6	422.26	0.0834	771.1	13.881	27.84	17.23	1.62
	119.69	34.70	70.88	0.00	0.0646	11.69	514.3	422.07	0.0834	771.0	13.878	27.84	17.23	1.62
	120.69	34.62	70.88	0.00	0.0646	11.69	514.6	422.15	0.0836	774.7	13.944	27.96	17.30	1.62
	121.69	34.70	70.86	0.00	0.0646	11.69	514.6	422.43	0.0835	774.3	13.937	27.97	17.30	1.62
	122.78	34.67	70.91	0.00	0.0646	11.68	514.0	421.65	0.0836	772.6	13.907	27.89	17.26	1.62
	123.69	34.68	70.91	0.00	0.0646	11.70	514.9	422.35	0.0837	776.5	13.977	28.03	17.34	1.62
	124.67	34.68	70.88	0.00	0.0647	11.71	515.1	422.72	0.0839	779.8	14.036	28.15	17.41	1.62
	125.69	34.67	70.88	0.00	0.0646	11.70	514.9	422.50	0.0837	776.3	13.973	28.03	17.34	1.62
	126.67	34.70	70.91	0.00	0.0646	11.71	515.1	422.56	0.0841	781.7	14.070	28.22	17.45	1.62
	127.69	34.70	70.91	0.00	0.0647	11.71	515.0	422.50	0.0838	777.1	13.987	28.05	17.36	1.62
	128.67	34.72	70.91	0.00	0.0647	11.70	514.8	422.37	0.0840	779.5	14.031	28.14	17.41	1.62
	129.69	34.69	70.88	0.00	0.0647	11.67	513.6	421.49	0.0842	779.2	14.026	28.13	17.40	1.62
	130.67	34.70	70.91	0.00	0.0647	11.72	515.5	422.89	0.0843	785.5	14.139	28.35	17.53	1.62
	131.69	34.70	70.88	0.00	0.0647	11.71	515.2	422.79	0.0841	781.8	14.072	28.23	17.45	1.62
	132.67	34.72	70.91	0.00	0.0647	11.71	515.2	422.66	0.0839	779.3	14.027	28.13	17.40	1.62
	133.69	34.75	70.91	0.00	0.0647	11.71	515.3	422.77	0.0841	782.8	14.091	28.26	17.48	1.62
	134.75	34.67	70.91	0.00	0.0647	11.72	515.6	422.91	0.0841	783.3	14.099	28.27	17.48	1.62
	135.67	34.66	70.91	0.00	0.0647	11.72	515.6	422.89	0.0845	784.4	14.120	28.31	17.50	1.62
	136.69	34.72	70.91	0.00	0.0647	11.70	514.7	422.30	0.0840	779.0	14.021	28.12	17.40	1.62
	137.67	34.75	70.93	0.00	0.0647	11.70	514.7	422.14	0.0842	782.6	14.087	28.24	17.47	1.62
	138.69	34.72	70.91	0.00	0.0646	11.70	514.6	422.20	0.0842	782.7	14.089	28.25	17.47	1.62
	139.67	34.69	70.91	0.00	0.0645	11.68	514.0	421.69	0.0842	782.9	14.092	28.26	17.47	1.62
	140.69	34.72	70.91	0.00	0.0646	11.68	514.0	421.73	0.0846	785.3	14.135	28.35	17.52	1.62
	141.67	34.69	70.93	0.00	0.0646	11.66	513.0	420.73	0.0849	786.9	14.164	28.39	17.55	1.62
	142.69	34.77	70.93	0.00	0.0645	11.67	513.6	421.28	0.0843	785.5	14.139	28.35	17.53	1.62
	143.67	34.75	70.91	0.00	0.0645	11.67	513.3	421.18	0.0850	792.1	14.257	28.59	17.66	1.62
	144.69	34.74	70.91	0.00	0.0644	11.68	514.0	421.74	0.0845	786.9	14.164	28.41	17.56	1.62
	145.67	34.71	70.88	0.00	0.0645	11.64	512.3	420.44	0.0846	783.5	14.103	28.29	17.49	1.62
	146.67	34.74	70.91	0.00	0.0645	11.68	514.1	421.81	0.0828	781.0	14.058	28.19	17.44	1.62
	147.69	34.74	70.88	0.00	0.0646	11.68	514.1	421.92	0.0836	785.6	14.141	28.37	17.53	1.62
